Extension;Load;Strain 1
0;22.22;0
0.01;39.08;0.006
0.03;70.96;0.018
0.05;100.04;0.029
0.07;109.28;0.032
0.08;109.67;0.033
0.1;112.45;0.034
0.12;133.42;0.041
0.13;157.13;0.05
0.15;181.75;0.056
0.17;206.97;0.065
0.18;232.22;0.075
0.2;257.11;0.084
0.22;282.48;0.093
0.23;307.35;0.102
0.25;331.65;0.111
0.27;356.59;0.12
0.28;381.04;0.129
0.3;405.26;0.137
0.32;430.67;0.146
0.33;454.37;0.155
0.35;477.94;0.164
0.37;502.15;0.173
0.38;526.38;0.182
0.4;550.05;0.191
0.42;573.77;0.199
0.43;597.5;0.208
0.45;620.86;0.217
0.47;644.25;0.226
0.48;667.02;0.234
0.5;689.06;0.243
0.52;711.66;0.251
0.53;734.07;0.26
0.55;757.06;0.268
0.57;778.02;0.277
0.58;799.3;0.285
0.6;821.61;0.294
0.62;842.29;0.302
0.63;862.5;0.31
0.65;882.69;0.318
0.67;902.18;0.326
0.68;920.14;0.333
0.7;937.24;0.34
0.72;954.5;0.347
0.73;971.38;0.354
0.75;987.35;0.36
0.77;1003.18;0.367
0.78;1018.45;0.373
0.8;1033.4;0.379
0.82;1047.54;0.385
0.83;1060.87;0.391
0.85;1074.23;0.397
0.87;1088.93;0.403
0.88;1102.84;0.409
0.9;1116.38;0.416
0.92;1129.47;0.421
0.93;1142.9;0.427
0.95;1155.66;0.433
0.97;1169.03;0.439
0.98;1181.2;0.445
1;1194.18;0.451
1.02;1206.81;0.457
1.03;1219.72;0.463
1.05;1232.9;0.469
1.07;1245.35;0.475
1.08;1257.84;0.481
1.1;1270.71;0.488
1.12;1283.45;0.494
1.13;1295.54;0.5
1.15;1308.12;0.506
1.17;1320.14;0.512
1.18;1332.88;0.519
1.2;1346.47;0.525
1.22;1358.79;0.531
1.23;1371.15;0.537
1.25;1382.75;0.544
1.27;1395.5;0.55
1.28;1408.47;0.557
1.3;1420.49;0.563
1.32;1433.17;0.57
1.33;1444.75;0.576
1.35;1457.13;0.582
1.37;1469.7;0.589
1.38;1482.4;0.596
1.4;1494.49;0.602
1.42;1506.85;0.609
1.43;1519.63;0.616
1.45;1531.94;0.622
1.47;1544.17;0.629
1.48;1556.1;0.635
1.5;1569.23;0.642
1.52;1581.66;0.649
1.53;1594.75;0.656
1.55;1607.55;0.663
1.57;1620.07;0.67
1.58;1631.65;0.676
1.6;1644.5;0.683
1.62;1657.21;0.69
1.63;1669.66;0.697
1.65;1681.52;0.703
1.67;1694.4;0.71
1.68;1707.12;0.717
1.7;1720.09;0.725
1.72;1732.49;0.732
1.73;1744.83;0.739
1.75;1756.87;0.746
1.77;1769.48;0.753
1.78;1781.93;0.76
1.8;1793.82;0.767
1.82;1806.44;0.774
1.83;1818.77;0.781
1.85;1831.66;0.788
1.87;1843.93;0.795
1.88;1856.57;0.802
1.9;1868.84;0.81
1.92;1881.5;0.817
1.93;1892.9;0.823
1.95;1905.65;0.831
1.97;1918.5;0.838
1.98;1930.77;0.846
2;1943.82;0.853
2.02;1956.35;0.86
2.03;1968.35;0.867
2.05;1980.55;0.874
2.07;1992.69;0.881
2.08;2005.22;0.889
2.1;2017.68;0.896
2.12;2030.25;0.904
2.13;2042.22;0.911
2.15;2054.14;0.918
2.17;2065.76;0.925
2.18;2079.06;0.933
2.2;2091.35;0.94
2.22;2102.95;0.948
2.23;2115.25;0.955
2.25;2127.8;0.963
2.27;2140.52;0.97
2.28;2152.45;0.977
2.3;2164.05;0.985
2.32;2176.25;0.992
2.33;2189.4;1
2.35;2201.25;1.007
2.37;2213.49;1.015
2.38;2226.45;1.022
2.4;2237.9;1.03
2.42;2250.73;1.037
2.43;2262.47;1.045
2.45;2274.47;1.052
2.47;2285.71;1.06
2.48;2298.82;1.067
2.5;2310.63;1.075
2.52;2323.1;1.083
2.53;2334.83;1.09
2.55;2345.96;1.098
2.57;2357.95;1.105
2.58;2370.92;1.113
2.6;2382.75;1.121
2.62;2395.1;1.129
2.63;2406.3;1.137
2.65;2418.37;1.144
2.67;2430.06;1.152
2.68;2441.39;1.16
2.7;2452.65;1.167
2.72;2465.06;1.175
2.73;2477.38;1.183
2.75;2488.84;1.191
2.77;2500.22;1.199
2.78;2511.82;1.207
2.8;2523.5;1.215
2.82;2535.22;1.222
2.83;2546.95;1.23
2.85;2559.15;1.238
2.87;2570.83;1.246
2.88;2581.23;1.254
2.9;2593.28;1.263
2.92;2605.39;1.271
2.93;2616.04;1.279
2.95;2627.15;1.286
2.97;2637.98;1.294
2.98;2649.26;1.302
3;2660.82;1.31
3.02;2671.99;1.319
3.03;2683.51;1.327
3.05;2694.6;1.336
3.07;2705.89;1.344
3.08;2716.68;1.352
3.1;2728.07;1.36
3.12;2737.67;1.368
3.13;2748.48;1.376
3.15;2759.7;1.385
3.17;2771.02;1.393
3.18;2781.74;1.402
3.2;2792.89;1.41
3.22;2803.36;1.419
3.23;2813.82;1.427
3.25;2824.2;1.435
3.27;2834.87;1.444
3.28;2846.41;1.453
3.3;2857.09;1.461
3.32;2867.06;1.47
3.33;2877.56;1.479
3.35;2887.53;1.487
3.37;2897.83;1.496
3.38;2907.45;1.505
3.4;2918.9;1.513
3.42;2929.08;1.522
3.43;2938.65;1.531
3.45;2948.07;1.54
3.47;2957.97;1.549
3.48;2968.46;1.558
3.5;2978.68;1.567
3.52;2987.44;1.576
3.53;2997.29;1.585
3.55;3007.16;1.594
3.57;3017.11;1.603
3.58;3026.64;1.612
3.6;3036.19;1.621
3.62;3044.68;1.631
3.63;3054.63;1.64
3.65;3063.96;1.649
3.67;3073.07;1.658
3.68;3081.62;1.667
3.7;3091.43;1.677
3.72;3100.33;1.687
3.73;3109.84;1.696
3.75;3118.11;1.706
3.77;3125.97;1.715
3.78;3134.82;1.724
3.8;3143.53;1.734
3.82;3151.43;1.743
3.83;3159.87;1.753
3.85;3167.65;1.763
3.87;3175.2;1.772
3.88;3183.96;1.782
3.9;3192.48;1.792
3.92;3200.52;1.802
3.93;3207.6;1.812
3.95;3215.35;1.822
3.97;3222.87;1.832
3.98;3229.97;1.842
4;3237.71;1.852
4.02;3244.86;1.862
4.03;3251.69;1.872
4.05;3258.96;1.882
4.07;3265.14;1.892
4.08;3272.76;1.902
4.1;3279.39;1.912
4.12;3286.32;1.923
4.13;3292.02;1.933
4.15;3298.97;1.944
4.17;3304.44;1.954
4.18;3310.29;1.964
4.2;3316.32;1.975
4.22;3322.42;1.985
4.23;3328.4;1.996
4.25;3334.32;2.006
4.27;3338.79;2.017
4.28;3344.29;2.028
4.3;3349.27;2.038
4.32;3354.73;2.049
4.33;3358.8;2.06
4.35;3364.44;2.071
4.37;3369;2.081
4.38;3373.55;2.092
4.4;3378.38;2.103
4.42;3382.49;2.114
4.43;3385.51;2.125
4.45;3389.79;2.136
4.47;3394.44;2.147
4.48;3398.44;2.158
4.5;3402.08;2.169
4.52;3406.05;2.181
4.53;3408.22;2.192
4.55;3411.42;2.203
4.57;3414.29;2.214
4.58;3417.39;2.225
4.6;3420.09;2.236
4.62;3422.87;2.248
4.63;3425.32;2.259
4.65;3427.33;2.27
4.67;3428.98;2.281
4.68;3430.56;2.293
4.7;3432.19;2.304
4.72;3434.19;2.315
4.73;3435.27;2.326
4.75;3436.36;2.337
4.77;3437.39;2.348
4.78;3438.75;2.36
4.8;3440.49;2.371
4.82;3440.81;2.382
4.83;3441.32;2.393
4.85;3441.46;2.404
4.87;3441.95;2.416
4.88;3442.27;2.427
4.9;3441.96;2.437
4.92;3442.17;2.449
4.93;3441.59;2.46
4.95;3441.6;2.47
4.97;3440.11;2.481
4.98;3440.09;2.492
5;3439.84;2.503
5.02;3438.64;2.514
5.03;3437.68;2.525
5.05;3436.69;2.535
5.07;3435.67;2.546
5.08;3434.05;2.557
5.1;3432.95;2.567
5.12;3430.79;2.578
5.13;3429.68;2.588
5.15;3427.27;2.598
5.17;3425.54;2.608
5.18;3423.8;2.618
5.2;3422.75;2.629
5.22;3420.77;2.639
5.23;3418.79;2.649
5.25;3415.98;2.659
5.27;3413.05;2.669
5.28;3411.16;2.678
5.3;3408.68;2.688
5.32;3405.9;2.697
5.33;3403.37;2.707
5.35;3401.01;2.716
5.37;3397.84;2.725
5.38;3394.87;2.734
5.4;3392.12;2.743
5.42;3388.67;2.752
5.43;3385.47;2.76
5.45;3382.77;2.769
5.47;3379.77;2.778
5.48;3375.95;2.786
5.5;3372.58;2.795
5.52;3369.2;2.803
5.53;3366.32;2.811
5.55;3362.18;2.819
5.57;3358.18;2.826
5.58;3354.75;2.834
5.6;3351.26;2.841
5.62;3347.9;2.849
5.63;3344.74;2.856
5.65;3341.23;2.863
5.67;3336.86;2.87
5.68;3332.91;2.877
5.7;3329.15;2.884
5.72;3325.11;2.89
5.73;3321.2;2.896
5.75;3317.73;2.903
5.77;3313.95;2.909
5.78;3309.28;2.915
5.8;3305.32;2.921
5.82;3301.79;2.927
5.83;3297;2.932
5.85;3292.46;2.937
5.87;3288.41;2.943
5.88;3284.43;2.948
5.9;3280.6;2.954
5.92;3276.3;2.959
5.93;3271.65;2.964
5.95;3266.81;2.968
5.97;3262.33;2.973
5.98;3258.05;2.977
6;3254.17;2.982
6.02;3249.35;2.986
6.03;3245.62;2.99
6.05;3241.15;2.994
6.07;3235.92;2.998
6.08;3231.82;3.001
6.1;3227.93;3.005
6.12;3223.46;3.009
6.13;3219.29;3.012
6.15;3215.05;3.015
6.17;3211.29;3.019
6.18;3206.58;3.022
6.2;3201.51;3.025
6.22;3197.09;3.028
6.23;3192.35;3.03
6.25;3187.47;3.033
6.27;3183.77;3.035
6.28;3179.79;3.038
6.3;3174.94;3.041
6.32;3170.08;3.043
6.33;3165.45;3.045
6.35;3160.73;3.047
6.37;3155.9;3.049
6.38;3151.41;3.05
6.4;3146.8;3.052
6.42;3143.34;3.054
6.43;3138.48;3.056
6.45;3133.76;3.057
6.47;3128.58;3.058
6.48;3124.14;3.059
6.5;3119.73;3.061
6.52;3115.36;3.062
6.53;3110.99;3.063
6.55;3106.98;3.064
6.57;3101.67;3.065
6.58;3097.15;3.066
6.6;3092.48;3.066
6.62;3087.83;3.067
6.63;3083.02;3.067
6.65;3078.32;3.068
6.67;3074.07;3.068
6.68;3070.12;3.069
6.7;3065.32;3.069
6.72;3060.54;3.07
6.73;3055.98;3.07
6.75;3050.86;3.07
6.77;3046.66;3.07
6.78;3042.28;3.07
6.8;3037.47;3.07
6.82;3032.82;3.069
6.83;3028.54;3.069
6.85;3023.92;3.069
6.87;3018.95;3.069
6.88;3013.79;3.068
6.9;3009.47;3.067
6.92;3005.21;3.067
6.93;3000.96;3.066
6.95;2996.87;3.066
6.97;2992.2;3.066
6.98;2987.65;3.065
7;2982.66;3.064
7.02;2977.69;3.063
7.03;2972.32;3.062
7.05;2967.3;3.061
7.07;2963.6;3.06
7.08;2959.49;3.059
7.1;2955.13;3.058
7.12;2950.22;3.058
7.13;2945.29;3.056
7.15;2940.37;3.055
7.17;2934.65;3.053
7.18;2930.57;3.052
7.2;2926.25;3.051
7.22;2922.36;3.05
7.23;2917.96;3.049
7.25;2914.1;3.047
7.27;2909.45;3.046
7.28;2904.47;3.044
7.3;2899.63;3.043
7.32;2895.63;3.041
7.33;2890.98;3.04
7.35;2886.5;3.038
7.37;2881.91;3.037
7.38;2877.45;3.035
7.4;2873.16;3.034
7.42;2868.4;3.032
7.43;2863.78;3.03
7.45;2859.03;3.029
7.47;2854.84;3.027
7.48;2850.83;3.025
7.5;2846.83;3.024
7.52;2842.25;3.022
7.53;2836.85;3.02
7.55;2832.67;3.018
7.57;2828.31;3.016
7.58;2823.93;3.014
7.6;2819.46;3.013
7.62;2815.22;3.011
7.63;2811.86;3.009
7.65;2807.31;3.007
7.67;2803.37;3.005
7.68;2798.08;3.003
7.7;2793.5;3.001
7.72;2789.28;2.999
7.73;2784.84;2.997
7.75;2781.37;2.995
7.77;2776.82;2.993
7.78;2772.8;2.991
7.8;2768.9;2.989
7.82;2764.95;2.987
7.83;2760.46;2.985
7.85;2756.21;2.983
7.87;2751.89;2.981
7.88;2747.93;2.979
7.9;2744.95;2.978
7.92;2741.43;2.976
7.93;2737.46;2.974
7.95;2732.29;2.972
7.97;2728.71;2.97
7.98;2724.4;2.967
8;2720.82;2.966
8.02;2716.97;2.964
8.03;2713.67;2.962
8.05;2709.86;2.96
8.07;2707.48;2.959
8.08;2703.37;2.957
8.1;2699.51;2.955
8.12;2695.89;2.953
8.13;2693.19;2.951
8.15;2689.18;2.949
8.17;2685.92;2.947
8.18;2682.56;2.946
8.2;2679.76;2.944
8.22;2675.99;2.942
8.23;2672.85;2.941
8.25;2669.53;2.939
8.27;2666.14;2.937
8.28;2663.72;2.936
8.3;2661.24;2.934
8.32;2658.59;2.933
8.33;2655.2;2.931
8.35;2651.64;2.929
8.37;2648.84;2.928
8.38;2646.5;2.927
8.4;2644.1;2.925
8.42;2641.35;2.924
8.43;2639.09;2.923
8.45;2636.46;2.921
8.47;2633.2;2.92
8.48;2631.12;2.918
8.5;2629.92;2.917
8.52;2627.03;2.916
8.53;2624.48;2.915
8.55;2622.31;2.913
8.57;2620.68;2.912
8.58;2618.62;2.911
8.6;2616.73;2.91
8.62;2614.92;2.909
8.63;2612.62;2.908
8.65;2610.1;2.907
8.67;2607.36;2.905
8.68;2605.23;2.904
8.7;2603.35;2.903
8.72;2602.92;2.903
8.73;2601.22;2.902
8.75;2598.75;2.901
8.77;2596.39;2.9
8.78;2594.95;2.899
8.8;2592.86;2.898
8.82;2590.68;2.897
8.83;2589.28;2.896
8.85;2587.96;2.895
8.87;2586.47;2.895
8.88;2585.37;2.894
8.9;2583.22;2.893
8.92;2582.8;2.893
8.93;2580.51;2.892
8.95;2579.09;2.891
8.97;2577.82;2.89
8.98;2576.63;2.889
9;2575.44;2.889
9.02;2573.98;2.888
9.03;2572.51;2.888
9.05;2571.43;2.887
9.07;2569.8;2.886
9.08;2568.18;2.885
9.1;2567.06;2.885
9.12;2567.02;2.884
9.13;2565.74;2.884
9.15;2564.48;2.883
9.17;2562.65;2.883
9.18;2561.49;2.882
9.2;2560.13;2.881
9.22;2558.99;2.881
9.23;2557.99;2.881
9.25;2557.66;2.88
9.27;2556.83;2.88
9.28;2555.58;2.879
9.3;2554.82;2.879
9.32;2553.89;2.879
9.33;2551.98;2.878
9.35;2551.24;2.877
9.37;2550.95;2.877
9.38;2550.62;2.877
9.4;2549.83;2.877
9.42;2549.84;2.877
9.43;2548.44;2.876
9.45;2547.38;2.876
9.47;2546.4;2.875
9.48;2545.26;2.875
9.5;2543.91;2.874
9.52;2544.07;2.874
9.53;2543.16;2.874
9.55;2542.8;2.874
9.57;2542.32;2.873
9.58;2541.36;2.873
9.6;2540.21;2.873
9.62;2539.23;2.873
9.63;2538.1;2.872
9.65;2537.06;2.872
9.67;2537.62;2.872
9.68;2537.28;2.872
9.7;2536.57;2.871
9.72;2536.05;2.871
9.73;2535.7;2.871
9.75;2534.03;2.871
9.77;2532.79;2.87
9.78;2533.08;2.87
9.8;2533.11;2.87
9.82;2534.01;2.87
9.83;2532.84;2.87
9.85;2532.06;2.87
9.87;2530.78;2.87
9.88;2530.07;2.869
9.9;2529.58;2.869
9.92;2529.38;2.869
9.93;2529.48;2.869
9.95;2529.23;2.869
9.97;2528.01;2.869
9.98;2526.79;2.868
10;2526.2;2.868
10.02;2525.44;2.868
10.03;2525.19;2.868
10.05;2524.81;2.868
10.07;2524.72;2.868
10.08;2524.96;2.868
10.1;2524.75;2.868
10.12;2523.81;2.868
10.13;2523.5;2.868
10.15;2522.2;2.867
10.17;2521.91;2.867
10.18;2521.56;2.867
10.2;2521.5;2.867
10.22;2521.94;2.867
10.23;2522.18;2.867
10.25;2521.21;2.867
10.27;2521.07;2.867
10.28;2519.36;2.866
10.3;2519.21;2.866
10.32;2519.07;2.866
10.33;2518.56;2.866
10.35;2518.45;2.866
10.37;2517.64;2.866
10.38;2516.86;2.866
10.4;2516.4;2.866
10.42;2515.91;2.866
10.43;2516.12;2.866
10.45;2516.03;2.866
10.47;2515.92;2.866
10.48;2515.52;2.866
10.5;2515.75;2.866
10.52;2515.07;2.866
10.53;2514.8;2.866
10.55;2514.8;2.866
10.57;2514.1;2.866
10.58;2513.77;2.866
10.6;2514.06;2.866
10.62;2513.62;2.866
10.63;2513.88;2.866
10.65;2513.24;2.866
10.67;2512.49;2.866
10.68;2512.35;2.866
10.7;2512.76;2.866
10.72;2511.6;2.866
10.73;2511.87;2.866
10.75;2512.29;2.867
10.77;2512.46;2.867
10.78;2512.4;2.867
10.8;2510.85;2.867
10.82;2510.53;2.867
10.83;2510.42;2.867
10.85;2509.97;2.867
10.87;2510.65;2.867
10.88;2510.96;2.867
10.9;2511.47;2.868
10.92;2510.82;2.868
10.93;2510.57;2.868
10.95;2510.08;2.867
10.97;2509.91;2.868
10.98;2510.18;2.868
11;2510.38;2.868
11.02;2511.64;2.869
11.03;2513.01;2.869
11.05;2512.69;2.87
11.07;2511.86;2.869
11.08;2511.68;2.869
11.1;2511.67;2.87
11.12;2512.41;2.87
11.13;2513.04;2.871
11.15;2513.26;2.871
11.17;2513.32;2.871
11.18;2513.76;2.872
11.2;2513.56;2.872
11.22;2512.99;2.872
11.23;2513.12;2.872
11.25;2513.71;2.872
11.27;2512.99;2.873
11.28;2512.78;2.873
11.3;2513.65;2.873
11.32;2514.16;2.874
11.33;2514.3;2.874
11.35;2514.47;2.874
11.37;2513.67;2.874
11.38;2514.14;2.874
11.4;2515.04;2.875
11.42;2515.29;2.875
11.43;2515.29;2.875
11.45;2515.85;2.875
11.47;2515.94;2.876
11.48;2515.49;2.876
11.5;2515.44;2.876
11.52;2515.81;2.876
11.53;2515.77;2.877
11.55;2516.47;2.877
11.57;2516.84;2.878
11.58;2516.54;2.878
11.6;2516.89;2.878
11.62;2516.95;2.878
11.63;2517.45;2.879
11.65;2517;2.879
11.67;2516.58;2.879
11.68;2516.8;2.879
11.7;2517.48;2.879
11.72;2517.77;2.88
11.73;2518.21;2.88
11.75;2517.97;2.881
11.77;2517.82;2.881
11.78;2517.62;2.881
11.8;2517.25;2.881
11.82;2518.23;2.881
11.83;2518.6;2.882
11.85;2518.98;2.882
11.87;2518.44;2.882
11.88;2517.91;2.882
11.9;2517.6;2.882
11.92;2518.26;2.881
11.93;2517.54;2.881
11.95;2518.1;2.881
11.97;2517.33;2.881
11.98;2517.73;2.882
12;2517.06;2.882
12.02;2516.3;2.881
12.03;2516.26;2.882
12.05;2515.22;2.882
12.07;2515.42;2.882
12.08;2515.29;2.882
12.1;2515.41;2.882
12.12;2515.2;2.882
12.13;2515.22;2.882
12.15;2514.88;2.882
12.17;2515.06;2.882
12.18;2514.49;2.882
12.2;2514.86;2.883
12.22;2514.37;2.883
12.23;2514.66;2.883
12.25;2514.51;2.883
12.27;2514.22;2.883
12.28;2514.29;2.883
12.3;2514.02;2.883
12.32;2513.44;2.883
12.33;2514.16;2.883
12.35;2513.63;2.884
12.37;2513.28;2.884
12.38;2513.39;2.884
12.4;2514.54;2.884
12.42;2513.81;2.885
12.43;2514.14;2.885
12.45;2513.03;2.885
12.47;2512.82;2.885
12.48;2512.75;2.885
12.5;2513.15;2.885
12.52;2513.32;2.885
12.53;2513.44;2.886
12.55;2513.38;2.886
12.57;2513.25;2.886
12.58;2512.58;2.886
12.6;2512.1;2.886
12.62;2512.9;2.886
12.63;2513.16;2.887
12.65;2513.88;2.887
12.67;2513.46;2.887
12.68;2513.77;2.887
12.7;2513.82;2.887
12.72;2513.24;2.887
12.73;2512.98;2.887
12.75;2512.51;2.888
12.77;2513.25;2.888
12.78;2512.94;2.888
12.8;2513.65;2.888
12.82;2513.3;2.888
12.83;2512.92;2.889
12.85;2513.04;2.889
12.87;2513;2.889
12.88;2512.69;2.889
12.9;2512.1;2.889
12.92;2512.5;2.889
12.93;2512.92;2.89
12.95;2512.59;2.89
12.97;2512.57;2.89
12.98;2511.6;2.889
13;2511.21;2.89
13.02;2511.51;2.89
13.03;2511.86;2.89
13.05;2512.06;2.891
13.07;2512.8;2.891
13.08;2512.56;2.891
13.1;2512.17;2.891
13.12;2511.79;2.891
13.13;2511.77;2.891
13.15;2510.76;2.891
13.17;2510.97;2.891
13.18;2511.17;2.891
13.2;2511.43;2.891
13.22;2511.78;2.892
13.23;2511.48;2.892
13.25;2511.13;2.892
13.27;2511.19;2.892
13.28;2510.25;2.892
13.3;2511.1;2.892
13.32;2510.61;2.892
13.33;2510.5;2.892
13.35;2510.52;2.892
13.37;2510.11;2.892
13.38;2509.56;2.892
13.4;2509.52;2.892
13.42;2509.26;2.892
13.43;2508.96;2.892
13.45;2509.45;2.893
13.47;2509.7;2.893
13.48;2509.93;2.893
13.5;2509.79;2.893
13.52;2509.37;2.893
13.53;2508.86;2.893
13.55;2508.21;2.893
13.57;2507.55;2.893
13.58;2508.46;2.893
13.6;2509.21;2.893
13.62;2508.4;2.894
13.63;2509.03;2.894
13.65;2508.7;2.894
13.67;2507.09;2.894
13.68;2506.51;2.893
13.7;2506.43;2.893
13.72;2507.36;2.894
13.73;2508.34;2.894
13.75;2507.58;2.895
13.77;2507.65;2.895
13.78;2506.88;2.895
13.8;2506.57;2.894
13.82;2506.7;2.895
13.83;2506.32;2.895
13.85;2507.21;2.895
13.87;2506.65;2.895
13.88;2507.48;2.895
13.9;2506.37;2.895
13.92;2506.67;2.895
13.93;2506.76;2.896
13.95;2506.26;2.896
13.97;2506.17;2.896
13.98;2506.83;2.896
14;2506.67;2.896
14.02;2506.46;2.896
14.03;2505.94;2.896
14.05;2505.89;2.896
14.07;2505.5;2.896
14.08;2504.83;2.896
14.1;2504.84;2.897
14.12;2504.89;2.897
14.13;2505.38;2.897
14.15;2505.2;2.897
14.17;2505.44;2.897
14.18;2505.28;2.897
14.2;2504.5;2.897
14.22;2504.55;2.897
14.23;2504.31;2.897
14.25;2504.31;2.898
14.27;2504.41;2.898
14.28;2504.78;2.898
14.3;2503.65;2.898
14.32;2503.5;2.898
14.33;2503.66;2.898
14.35;2503.49;2.898
14.37;2503.14;2.898
14.38;2503.05;2.898
14.4;2503.55;2.898
14.42;2503.05;2.898
14.43;2502.53;2.899
14.45;2502.76;2.899
14.47;2502.77;2.899
14.48;2501.33;2.898
14.5;2501.46;2.898
14.52;2501.5;2.898
14.53;2501.83;2.899
14.55;2501.5;2.899
14.57;2501.24;2.899
14.58;2501.34;2.899
14.6;2501.08;2.899
14.62;2500.1;2.899
14.63;2501;2.899
14.65;2500.31;2.899
14.67;2500.19;2.899
14.68;2500.92;2.9
14.7;2500.75;2.9
14.72;2500.37;2.9
14.73;2500.25;2.9
14.75;2500.16;2.9
14.77;2500.24;2.9
14.78;2500.54;2.9
14.8;2500.53;2.9
14.82;2500.46;2.901
14.83;2500.34;2.901
14.85;2500.02;2.901
14.87;2500.07;2.901
14.88;2499.5;2.901
14.9;2498.9;2.901
14.92;2499.32;2.901
14.93;2499.53;2.901
14.95;2500.45;2.901
14.97;2499.81;2.901
14.98;2499.11;2.901
15;2498.3;2.901
15.02;2498.54;2.901
15.03;2499.49;2.901
15.05;2498.85;2.901
15.07;2499.19;2.901
15.08;2499.15;2.902
15.1;2499.65;2.902
15.12;2499.38;2.902
15.13;2499.16;2.902
15.15;2498.79;2.902
15.17;2498.72;2.902
15.18;2498.06;2.902
15.2;2497.54;2.902
15.22;2498.01;2.902
15.23;2498.49;2.903
15.25;2498.34;2.903
15.27;2498.19;2.903
15.28;2497.65;2.903
15.3;2497.48;2.903
15.32;2497.09;2.903
15.33;2496.8;2.903
15.35;2496.87;2.903
15.37;2497.56;2.904
15.38;2497.57;2.904
15.4;2497.56;2.904
15.42;2497.32;2.904
15.43;2497.71;2.904
15.45;2497.31;2.904
15.47;2497.31;2.904
15.48;2497.3;2.904
15.5;2497.38;2.904
15.52;2497.4;2.904
15.53;2497.1;2.904
15.55;2496.8;2.904
15.57;2496.59;2.904
15.58;2495.91;2.904
15.6;2495.72;2.904
15.62;2495.63;2.904
15.63;2495.48;2.905
15.65;2496.01;2.905
15.67;2495.99;2.905
15.68;2495.7;2.905
15.7;2495.06;2.905
15.72;2494.29;2.905
15.73;2494.4;2.905
15.75;2493.87;2.905
15.77;2494.73;2.905
15.78;2494.4;2.905
15.8;2493.95;2.905
15.82;2494.03;2.905
15.83;2494.02;2.905
15.85;2493.9;2.906
15.87;2493.54;2.906
15.88;2494.05;2.906
15.9;2494.27;2.906
15.92;2494.53;2.907
15.93;2494.01;2.906
15.95;2494.45;2.907
15.97;2493.56;2.907
15.98;2493.68;2.906
16;2493.57;2.907
16.02;2493.18;2.907
16.03;2493.32;2.907
16.05;2493.88;2.907
16.07;2493.4;2.907
16.08;2493.51;2.907
16.1;2493.02;2.907
16.12;2492.91;2.907
16.13;2492.29;2.907
16.15;2492.2;2.907
16.17;2491.8;2.907
16.18;2492.17;2.908
16.2;2492.86;2.908
16.22;2492.83;2.908
16.23;2492.88;2.908
16.25;2493.83;2.909
16.27;2492.83;2.909
16.28;2491.7;2.908
16.3;2491.64;2.908
16.32;2492.46;2.909
16.33;2492.74;2.909
16.35;2492.85;2.909
16.37;2492.09;2.909
16.38;2492.25;2.909
16.4;2492.14;2.909
16.42;2492.5;2.91
16.43;2492.11;2.91
16.45;2492.75;2.91
16.47;2492.23;2.91
16.48;2492.2;2.91
16.5;2492.18;2.91
16.52;2491.49;2.91
16.53;2491.64;2.91
16.55;2491.51;2.91
16.57;2492;2.91
16.58;2491.92;2.911
16.6;2491.78;2.911
16.62;2491.72;2.911
16.63;2491.99;2.911
16.65;2492.34;2.911
16.67;2491.62;2.911
16.68;2491.8;2.911
16.7;2491.68;2.911
16.72;2492.11;2.912
16.73;2493.38;2.912
16.75;2492.83;2.912
16.77;2493.41;2.912
16.78;2493.06;2.912
16.8;2492.99;2.912
16.82;2491.68;2.912
16.83;2492.66;2.913
16.85;2492.42;2.913
16.87;2493.15;2.913
16.88;2492.63;2.913
16.9;2492.84;2.913
16.92;2492.16;2.913
16.93;2492.17;2.913
16.95;2492.52;2.914
16.97;2492.18;2.914
16.98;2492.59;2.914
17;2492.83;2.914
17.02;2493.02;2.914
17.03;2493.19;2.914
17.05;2492.28;2.914
17.07;2492.26;2.915
17.08;2492.07;2.915
17.1;2492.21;2.915
17.12;2491.74;2.915
17.13;2492.45;2.915
17.15;2492.89;2.916
17.17;2493.35;2.916
17.18;2492.5;2.916
17.2;2492.94;2.916
17.22;2492.59;2.916
17.23;2493.15;2.916
17.25;2493.22;2.916
17.27;2493.33;2.917
17.28;2492.67;2.917
17.3;2492.92;2.917
17.32;2492.4;2.917
17.33;2492.18;2.917
17.35;2490.82;2.917
17.37;2491.76;2.917
17.38;2491.56;2.917
17.4;2492.44;2.918
17.42;2492.33;2.918
17.43;2491.98;2.918
17.45;2491.49;2.918
17.47;2490.7;2.917
17.48;2490.67;2.917
17.5;2491.4;2.918
17.52;2490.91;2.918
17.53;2491.35;2.918
17.55;2491.27;2.918
17.57;2491.4;2.918
17.58;2490.96;2.918
17.6;2490.76;2.918
17.62;2489.72;2.918
17.63;2490.03;2.918
17.65;2490.37;2.918
17.67;2489.59;2.918
17.68;2489.62;2.918
17.7;2489.37;2.918
17.72;2489.31;2.918
17.73;2488.85;2.918
17.75;2487.98;2.918
17.77;2487.79;2.918
17.78;2487.51;2.918
17.8;2487.25;2.918
17.82;2487.25;2.918
17.83;2487.2;2.918
17.85;2487.83;2.919
17.87;2487.08;2.918
17.88;2486.64;2.918
17.9;2486.82;2.919
17.92;2487.2;2.919
17.93;2487.03;2.919
17.95;2486.92;2.919
17.97;2486.56;2.919
17.98;2486.66;2.919
18;2486.43;2.919
18.02;2485.91;2.919
18.03;2485.57;2.919
18.05;2486.3;2.92
18.07;2486.86;2.92
18.08;2486.77;2.92
18.1;2486.37;2.92
18.12;2485.77;2.92
18.13;2485.62;2.92
18.15;2485.32;2.92
18.17;2485.12;2.92
18.18;2484.79;2.92
18.2;2484.36;2.92
18.22;2484.54;2.92
18.23;2484.73;2.92
18.25;2484.73;2.92
18.27;2484.79;2.92
18.28;2484.23;2.92
18.3;2483.91;2.92
18.32;2483.7;2.92
18.33;2483.65;2.92
18.35;2483.92;2.921
18.37;2484.51;2.921
18.38;2484.67;2.921
18.4;2483.82;2.921
18.42;2483.98;2.921
18.43;2483.38;2.921
18.45;2484.2;2.921
18.47;2484.31;2.921
18.48;2484.1;2.922
18.5;2484.2;2.922
18.52;2483.72;2.922
18.53;2483.87;2.922
18.55;2484.16;2.922
18.57;2483.02;2.922
18.58;2483.58;2.922
18.6;2483.6;2.922
18.62;2483.4;2.923
18.63;2483.87;2.923
18.65;2483.11;2.923
18.67;2483.58;2.923
18.68;2484.04;2.923
18.7;2483.92;2.923
18.72;2484.76;2.923
18.73;2484.71;2.923
18.75;2484.81;2.923
18.77;2484.43;2.923
18.78;2484.37;2.923
18.8;2484.75;2.923
18.82;2484.83;2.923
18.83;2484.71;2.924
18.85;2484.97;2.924
18.87;2485.81;2.924
18.88;2485.51;2.924
18.9;2485.18;2.924
18.92;2484.43;2.924
18.93;2484.85;2.925
18.95;2485.36;2.925
18.97;2485.38;2.925
18.98;2484.71;2.925
19;2484.3;2.925
19.02;2484.74;2.926
19.03;2484.89;2.926
19.05;2484.87;2.926
19.07;2485.03;2.926
19.08;2485.15;2.926
19.1;2485.08;2.926
19.12;2484.1;2.926
19.13;2485.19;2.926
19.15;2485.33;2.927
19.17;2485.16;2.927
19.18;2485.48;2.927
19.2;2486;2.927
19.22;2485.8;2.927
19.23;2485.47;2.927
19.25;2484.98;2.927
19.27;2485.71;2.927
19.28;2485.76;2.928
19.3;2485.27;2.928
19.32;2484.99;2.928
19.33;2485.43;2.928
19.35;2486.07;2.928
19.37;2486.18;2.928
19.38;2485.21;2.928
19.4;2484.94;2.929
19.42;2485.02;2.929
19.43;2484.8;2.929
19.45;2485.25;2.929
19.47;2485.31;2.929
19.48;2485;2.929
19.5;2485.01;2.929
19.52;2484.66;2.929
19.53;2485.61;2.93
19.55;2485.6;2.93
19.57;2485.74;2.93
19.58;2485.8;2.93
19.6;2486.35;2.931
19.62;2486.11;2.931
19.63;2485.74;2.931
19.65;2485.92;2.931
19.67;2485.63;2.931
19.68;2486.38;2.931
19.7;2486.3;2.931
19.72;2486.21;2.931
19.73;2486.05;2.932
19.75;2485.79;2.932
19.77;2486.65;2.932
19.78;2485.56;2.932
19.8;2485.82;2.932
19.82;2485.72;2.932
19.83;2485.78;2.932
19.85;2485.61;2.932
19.87;2485.36;2.932
19.88;2484.92;2.932
19.9;2484.88;2.932
19.92;2484.79;2.932
19.93;2484.72;2.932
19.95;2484.87;2.932
19.97;2484.49;2.933
19.98;2484.26;2.933
20;2484.67;2.933
20.02;2484.2;2.933
20.03;2484.63;2.933
20.05;2483.81;2.933
20.07;2483.77;2.933
20.08;2483.24;2.933
20.1;2483.89;2.933
20.12;2483.54;2.933
20.13;2483.53;2.933
20.15;2482.71;2.933
20.17;2482.84;2.933
20.18;2482.81;2.933
20.2;2481.63;2.933
20.22;2481.63;2.933
20.23;2481.81;2.933
20.25;2481.91;2.934
20.27;2482.37;2.934
20.28;2482.29;2.934
20.3;2481.53;2.933
20.32;2481.3;2.933
20.33;2481;2.933
20.35;2480.98;2.934
20.37;2481.58;2.934
20.38;2481.44;2.934
20.4;2481.02;2.934
20.42;2481.01;2.934
20.43;2480.76;2.934
20.45;2480.52;2.934
20.47;2480.9;2.934
20.48;2480.34;2.934
20.5;2479.49;2.934
20.52;2480.16;2.934
20.53;2480.38;2.934
20.55;2479.21;2.934
20.57;2478.63;2.934
20.58;2478.56;2.934
20.6;2478.09;2.934
20.62;2477.92;2.934
20.63;2477.84;2.934
20.65;2478.02;2.934
20.67;2477.57;2.934
20.68;2477.84;2.934
20.7;2476.97;2.934
20.72;2477.09;2.934
20.73;2476.67;2.934
20.75;2476.94;2.934
20.77;2476.87;2.934
20.78;2476.71;2.934
20.8;2476.22;2.934
20.82;2475.92;2.934
20.83;2475.01;2.934
20.85;2476.14;2.934
20.87;2476.5;2.934
20.88;2476.09;2.934
20.9;2476.33;2.934
20.92;2475.69;2.935
20.93;2475.95;2.934
20.95;2475.51;2.934
20.97;2474.55;2.934
20.98;2475.14;2.934
21;2474.63;2.934
21.02;2473.63;2.934
21.03;2473.56;2.934
21.05;2474.23;2.935
21.07;2474.16;2.935
21.08;2473.53;2.935
21.1;2473.35;2.935
21.12;2473.48;2.935
21.13;2472.95;2.934
21.15;2473.16;2.934
21.17;2472.95;2.935
21.18;2473.01;2.935
21.2;2472.72;2.935
21.22;2472.41;2.935
21.23;2472.62;2.935
21.25;2472.62;2.935
21.27;2472.38;2.935
21.28;2472;2.935
21.3;2472.04;2.935
21.32;2472;2.935
21.33;2472.23;2.935
21.35;2472.21;2.935
21.37;2471.38;2.935
21.38;2471.26;2.935
21.4;2471.13;2.935
21.42;2471.58;2.935
21.43;2471.51;2.935
21.45;2471.24;2.936
21.47;2472.1;2.936
21.48;2471.2;2.936
21.5;2470.37;2.936
21.52;2470.07;2.935
21.53;2470.25;2.935
21.55;2470.93;2.936
21.57;2470.75;2.936
21.58;2470.59;2.936
21.6;2470.2;2.936
21.62;2470.14;2.936
21.63;2469.93;2.936
21.65;2469.95;2.936
21.67;2469.61;2.936
21.68;2469.89;2.936
21.7;2469.92;2.936
21.72;2469.67;2.936
21.73;2469.69;2.936
21.75;2469.98;2.936
21.77;2470.28;2.937
21.78;2469.35;2.936
21.8;2469.5;2.936
21.82;2469.62;2.937
21.83;2469.46;2.937
21.85;2468.91;2.937
21.87;2468.21;2.937
21.88;2468.26;2.937
21.9;2468.66;2.937
21.92;2468.2;2.936
21.93;2467.98;2.936
21.95;2468.52;2.937
21.97;2468.74;2.937
21.98;2468.78;2.937
22;2468.86;2.937
22.02;2467.57;2.937
22.03;2467.28;2.937
22.05;2467.76;2.937
22.07;2468.23;2.937
22.08;2467.85;2.937
22.1;2467.53;2.937
22.12;2467.76;2.937
22.13;2467.06;2.937
22.15;2467.08;2.937
22.17;2467.1;2.937
22.18;2466.88;2.937
22.2;2466.74;2.937
22.22;2466.44;2.937
22.23;2466.53;2.937
22.25;2466.72;2.937
22.27;2466.55;2.938
22.28;2466.45;2.938
22.3;2466.14;2.938
22.32;2465.97;2.938
22.33;2465.55;2.938
22.35;2466.06;2.938
22.37;2466.47;2.938
22.38;2466.1;2.938
22.4;2466.43;2.938
22.42;2466.33;2.939
22.43;2466.07;2.938
22.45;2466.39;2.939
22.47;2465.89;2.938
22.48;2465.82;2.938
22.5;2466;2.939
22.52;2466.15;2.939
22.53;2465.74;2.939
22.55;2466.14;2.939
22.57;2466.03;2.939
22.58;2466.38;2.939
22.6;2466.02;2.939
22.62;2466.01;2.939
22.63;2466.41;2.939
22.65;2465.82;2.94
22.67;2464.96;2.94
22.68;2465.03;2.939
22.7;2464.49;2.939
22.72;2464.85;2.94
22.73;2464.71;2.94
22.75;2464.72;2.94
22.77;2465.62;2.94
22.78;2465.58;2.941
22.8;2465.58;2.94
22.82;2464.81;2.94
22.83;2464.64;2.94
22.85;2465.23;2.941
22.87;2466;2.941
22.88;2466.1;2.941
22.9;2465.1;2.941
22.92;2466.14;2.941
22.93;2465.78;2.941
22.95;2466.29;2.942
22.97;2465.57;2.942
22.98;2466.01;2.942
23;2465.01;2.942
23.02;2465.32;2.942
23.03;2465.29;2.942
23.05;2465.65;2.942
23.07;2465.36;2.942
23.08;2465.51;2.942
23.1;2465.25;2.942
23.12;2465.14;2.942
23.13;2465.53;2.943
23.15;2464.99;2.943
23.17;2464.46;2.942
23.18;2465.07;2.943
23.2;2464.76;2.943
23.22;2465.33;2.943
23.23;2464.22;2.943
23.25;2464.38;2.943
23.27;2464.83;2.943
23.28;2465.71;2.943
23.3;2464.63;2.943
23.32;2464.71;2.943
23.33;2464;2.943
23.35;2464.5;2.944
23.37;2464.86;2.944
23.38;2464.31;2.944
23.4;2464.36;2.944
23.42;2464.28;2.944
23.43;2464.16;2.944
23.45;2463.92;2.944
23.47;2464.37;2.944
23.48;2463.9;2.944
23.5;2464.21;2.944
23.52;2463.1;2.944
23.53;2463.35;2.944
23.55;2463.15;2.944
23.57;2462.83;2.944
23.58;2462.5;2.944
23.6;2463.27;2.945
23.62;2463.6;2.945
23.63;2462.8;2.945
23.65;2462.36;2.945
23.67;2462.5;2.945
23.68;2462.35;2.944
23.7;2462.3;2.944
23.72;2462.58;2.945
23.73;2462.49;2.945
23.75;2462.16;2.945
23.77;2462.1;2.945
23.78;2461.58;2.945
23.8;2461.42;2.945
23.82;2461.24;2.945
23.83;2460.94;2.945
23.85;2460.87;2.945
23.87;2461.34;2.945
23.88;2460.7;2.945
23.9;2461.02;2.945
23.92;2461.18;2.945
23.93;2460.67;2.945
23.95;2460.41;2.945
23.97;2460.37;2.945
23.98;2459.78;2.945
24;2459.62;2.945
24.02;2459.6;2.945
24.03;2460.74;2.946
24.05;2460.42;2.946
24.07;2459.76;2.946
24.08;2460.39;2.946
24.1;2459.97;2.946
24.12;2459.37;2.945
24.13;2459.29;2.946
24.15;2459.98;2.946
24.17;2460.15;2.946
24.18;2459.94;2.946
24.2;2459.63;2.946
24.22;2459.5;2.946
24.23;2459.23;2.946
24.25;2459.15;2.946
24.27;2459.4;2.946
24.28;2459.12;2.947
24.3;2458.79;2.947
24.32;2458.68;2.947
24.33;2457.62;2.947
24.35;2457.94;2.947
24.37;2458.07;2.947
24.38;2458.03;2.947
24.4;2458.33;2.947
24.42;2459.13;2.947
24.43;2459.52;2.948
24.45;2458.75;2.948
24.47;2458.62;2.948
24.48;2458.91;2.948
24.5;2459.38;2.948
24.52;2459.41;2.948
24.53;2459.69;2.948
24.55;2459.72;2.949
24.57;2460.56;2.949
24.58;2459.9;2.949
24.6;2459.87;2.949
24.62;2459.02;2.949
24.63;2459.36;2.949
24.65;2458.98;2.949
24.67;2459.66;2.949
24.68;2460.2;2.95
24.7;2459.79;2.95
24.72;2459.25;2.95
24.73;2459.62;2.95
24.75;2458.97;2.95
24.77;2459.23;2.95
24.78;2459.43;2.95
24.8;2458.9;2.95
24.82;2459.72;2.951
24.83;2459.3;2.951
24.85;2459.35;2.951
24.87;2458.75;2.951
24.88;2459.22;2.951
24.9;2459.21;2.951
24.92;2459.31;2.95
24.93;2458.93;2.95
24.95;2459.1;2.95
24.97;2459.12;2.95
24.98;2459.2;2.95
25;2458.39;2.95
25.02;2458.53;2.95
25.03;2458.22;2.95
25.05;2457.98;2.95
25.07;2458.25;2.95
25.08;2458.56;2.951
25.1;2458.05;2.951
25.12;2458.04;2.951
25.13;2457.83;2.951
25.15;2457.52;2.951
25.17;2456.79;2.951
25.18;2457.24;2.951
25.2;2456.92;2.951
25.22;2457.84;2.951
25.23;2457.8;2.952
25.25;2457.64;2.952
25.27;2457.56;2.952
25.28;2456.98;2.952
25.3;2456.3;2.951
25.32;2456.93;2.952
25.33;2457.98;2.952
25.35;2458.71;2.952
25.37;2458.05;2.952
25.38;2458.48;2.953
25.4;2457.82;2.953
25.42;2456.84;2.952
25.43;2456.96;2.952
25.45;2457.3;2.953
25.47;2456.96;2.953
25.48;2457.37;2.953
25.5;2457.23;2.953
25.52;2457.09;2.953
25.53;2456.59;2.953
25.55;2456.55;2.953
25.57;2455.93;2.953
25.58;2456.37;2.953
25.6;2455.69;2.953
25.62;2455.96;2.953
25.63;2455.44;2.953
25.65;2456.22;2.954
25.67;2456.21;2.954
25.68;2455.7;2.954
25.7;2454.78;2.954
25.72;2455.95;2.954
25.73;2455.8;2.954
25.75;2455.81;2.954
25.77;2455.7;2.954
25.78;2456.15;2.954
25.8;2456.08;2.955
25.82;2455.47;2.955
25.83;2455.57;2.955
25.85;2454.68;2.955
25.87;2455.17;2.955
25.88;2455.45;2.955
25.9;2455.7;2.955
25.92;2455.21;2.955
25.93;2455.1;2.955
25.95;2454.51;2.955
25.97;2454.82;2.955
25.98;2454.26;2.955
26;2453.78;2.955
26.02;2453.5;2.955
26.03;2453.68;2.956
26.05;2454.08;2.956
26.07;2454.35;2.956
26.08;2454.74;2.956
26.1;2454.51;2.956
26.12;2453.72;2.956
26.13;2454.2;2.956
26.15;2454.27;2.956
26.17;2454.45;2.956
26.18;2453.63;2.956
26.2;2454.39;2.957
26.22;2453.91;2.957
26.23;2453.86;2.957
26.25;2453.44;2.957
26.27;2453.23;2.957
26.28;2453.36;2.957
26.3;2453.6;2.957
26.32;2453.96;2.957
26.33;2453.37;2.957
26.35;2452.98;2.958
26.37;2453.08;2.958
26.38;2452.9;2.958
26.4;2452.51;2.958
26.42;2452.22;2.958
26.43;2452.25;2.958
26.45;2452.15;2.958
26.47;2452.72;2.958
26.48;2451.92;2.958
26.5;2452.63;2.958
26.52;2451.77;2.958
26.53;2452;2.958
26.55;2452.15;2.958
26.57;2452.06;2.958
26.58;2451.71;2.958
26.6;2451.81;2.958
26.62;2451.15;2.958
26.63;2451.83;2.959
26.65;2451.29;2.959
26.67;2450.98;2.959
26.68;2451.27;2.959
26.7;2451.66;2.959
26.72;2451.26;2.959
26.73;2450.8;2.959
26.75;2450.86;2.959
26.77;2451.31;2.959
26.78;2451.15;2.96
26.8;2450.56;2.96
26.82;2450.17;2.96
26.83;2450.35;2.96
26.85;2450.54;2.96
26.87;2451.28;2.96
26.88;2450.79;2.96
26.9;2450.85;2.961
26.92;2450.18;2.96
26.93;2449.66;2.96
26.95;2449.75;2.96
26.97;2450.05;2.961
26.98;2450.5;2.961
27;2450.54;2.961
27.02;2449.97;2.961
27.03;2450.07;2.961
27.05;2450.05;2.961
27.07;2449.28;2.961
27.08;2449.02;2.961
27.1;2449.25;2.961
27.12;2448.81;2.961
27.13;2449;2.961
27.15;2448.81;2.961
27.17;2448.34;2.961
27.18;2448.61;2.961
27.2;2448.08;2.961
27.22;2447.07;2.961
27.23;2447.66;2.961
27.25;2447.02;2.961
27.27;2447.38;2.962
27.28;2447.53;2.962
27.3;2447.7;2.962
27.32;2446.86;2.962
27.33;2446.34;2.961
27.35;2446.65;2.961
27.37;2446.67;2.961
27.38;2446.89;2.962
27.4;2447.13;2.962
27.42;2447.28;2.962
27.43;2447.05;2.962
27.45;2446.85;2.962
27.47;2446.1;2.962
27.48;2445.89;2.962
27.5;2445.8;2.962
27.52;2446.08;2.962
27.53;2446.02;2.962
27.55;2445.62;2.963
27.57;2445.62;2.963
27.58;2445.53;2.963
27.6;2445.72;2.963
27.62;2445.24;2.963
27.63;2445.51;2.963
27.65;2445.6;2.963
27.67;2445.27;2.963
27.68;2445.48;2.964
27.7;2445.31;2.964
27.72;2445.48;2.964
27.73;2445.01;2.964
27.75;2444.58;2.964
27.77;2444.51;2.964
27.78;2444.99;2.964
27.8;2445.14;2.964
27.82;2445.1;2.964
27.83;2444.83;2.965
27.85;2444.37;2.965
27.87;2444.6;2.965
27.88;2443.93;2.965
27.9;2443.81;2.965
27.92;2443.36;2.965
27.93;2444.15;2.965
27.95;2444.73;2.966
27.97;2444.17;2.966
27.98;2443.44;2.966
28;2444.12;2.966
28.02;2442.73;2.966
28.03;2442.05;2.965
28.05;2442.46;2.966
28.07;2442.62;2.966
28.08;2443.28;2.966
28.1;2443.06;2.967
28.12;2442.7;2.967
28.13;2442.95;2.967
28.15;2442.26;2.967
28.17;2442.49;2.967
28.18;2443.04;2.967
28.2;2443.74;2.967
28.22;2443.59;2.968
28.23;2443.3;2.968
28.25;2442.68;2.968
28.27;2442.93;2.968
28.28;2442.78;2.968
28.3;2442.25;2.968
28.32;2442.16;2.968
28.33;2442.5;2.969
28.35;2443.4;2.969
28.37;2442.79;2.969
28.38;2442.21;2.969
28.4;2442.45;2.969
28.42;2442.01;2.969
28.43;2441.41;2.969
28.45;2441.83;2.969
28.47;2442.27;2.969
28.48;2442.15;2.969
28.5;2442.13;2.97
28.52;2441.71;2.97
28.53;2441.75;2.97
28.55;2441.16;2.97
28.57;2440.91;2.97
28.58;2441.36;2.97
28.6;2441.93;2.97
28.62;2441.94;2.97
28.63;2441.18;2.97
28.65;2441.13;2.97
28.67;2440.8;2.971
28.68;2440.6;2.971
28.7;2441.15;2.971
28.72;2440.42;2.971
28.73;2440.88;2.971
28.75;2440.55;2.972
28.77;2441.42;2.972
28.78;2441.1;2.972
28.8;2440.26;2.972
28.82;2440.1;2.972
28.83;2439.85;2.972
28.85;2439.71;2.972
28.87;2440.17;2.973
28.88;2439.96;2.973
28.9;2440.64;2.974
28.92;2440.47;2.974
28.93;2440.01;2.974
28.95;2440.01;2.974
28.97;2440.12;2.974
28.98;2439.24;2.974
29;2439.86;2.974
29.02;2440.08;2.974
29.03;2439.81;2.975
29.05;2439.96;2.975
29.07;2439.68;2.975
29.08;2439.13;2.975
29.1;2439.54;2.975
29.12;2439.31;2.975
29.13;2439.1;2.976
29.15;2439.67;2.976
29.17;2440.28;2.976
29.18;2439.52;2.976
29.2;2438.67;2.976
29.22;2438.62;2.976
29.23;2438.21;2.977
29.25;2439.35;2.977
29.27;2439.43;2.977
29.28;2439.18;2.978
29.3;2439.9;2.978
29.32;2439.64;2.978
29.33;2438.98;2.978
29.35;2438.76;2.978
29.37;2438.92;2.979
29.38;2439.46;2.979
29.4;2439.8;2.979
29.42;2440.13;2.98
29.43;2440.63;2.98
29.45;2440.15;2.98
29.47;2439.93;2.98
29.48;2440.45;2.981
29.5;2440.05;2.981
29.52;2440.77;2.981
29.53;2440.09;2.981
29.55;2440.15;2.982
29.57;2440.5;2.982
29.58;2441.01;2.982
29.6;2440.47;2.983
29.62;2440.47;2.983
29.63;2439.68;2.983
29.65;2440.58;2.984
29.67;2440.78;2.984
29.68;2440.44;2.984
29.7;2440.32;2.984
29.72;2440.55;2.985
29.73;2440.91;2.985
29.75;2440.79;2.985
29.77;2440.87;2.986
29.78;2441.07;2.986
29.8;2441.14;2.986
29.82;2441.64;2.987
29.83;2441.79;2.987
29.85;2441.64;2.987
29.87;2441.51;2.987
29.88;2441.16;2.988
29.9;2441.33;2.988
29.92;2441.42;2.988
29.93;2440.8;2.988
29.95;2440.66;2.989
29.97;2441.19;2.989
29.98;2441.53;2.989
30;2441.56;2.99
30.02;2440.64;2.99
30.03;2440.92;2.99
30.05;2440.9;2.99
30.07;2440.46;2.991
30.08;2440.76;2.991
30.1;2441.01;2.991
30.12;2441.2;2.992
30.13;2440.9;2.992
30.15;2440.58;2.992
30.17;2440.49;2.992
30.18;2440.83;2.993
30.2;2440.99;2.993
30.22;2441.23;2.993
30.23;2441.97;2.994
30.25;2441.48;2.994
30.27;2441.41;2.995
30.28;2441.45;2.995
30.3;2441.2;2.995
30.32;2440.07;2.995
30.33;2440.39;2.996
30.35;2440.36;2.996
30.37;2440.61;2.996
30.38;2440.49;2.997
30.4;2441.02;2.997
30.42;2439.98;2.998
30.43;2439.88;2.998
30.45;2440.14;2.998
30.47;2440.05;2.999
30.48;2440.19;2.999
30.5;2440.75;2.999
30.52;2440.2;3
30.53;2440.84;3
30.55;2441.37;3.001
30.57;2441.13;3.001
30.58;2440.96;3.002
30.6;2440.83;3.002
30.62;2440.99;3.002
30.63;2440.44;3.003
30.65;2441.06;3.003
30.67;2441.79;3.004
30.68;2441.6;3.004
30.7;2441.54;3.005
30.72;2441.52;3.005
30.73;2441.41;3.005
30.75;2441.12;3.006
30.77;2442.16;3.007
30.78;2441.92;3.007
30.8;2442.62;3.008
30.82;2441.92;3.008
30.83;2441.14;3.009
30.85;2440.65;3.009
30.87;2441.3;3.009
30.88;2441.42;3.01
30.9;2442.22;3.011
30.92;2442;3.011
30.93;2442.2;3.012
30.95;2443.06;3.013
30.97;2443.06;3.013
30.98;2443.32;3.014
31;2442.75;3.014
31.02;2442.56;3.015
31.03;2443.12;3.015
31.05;2443.98;3.016
31.07;2444.13;3.017
31.08;2443.28;3.017
31.1;2443.41;3.018
31.12;2443.4;3.018
31.13;2443.51;3.019
31.15;2442.62;3.019
31.17;2442.98;3.02
31.18;2443.61;3.021
31.2;2444.53;3.022
31.22;2444.12;3.022
31.23;2442.7;3.023
31.25;2443.14;3.023
31.27;2442.86;3.024
31.28;2442.68;3.024
31.3;2443.06;3.025
31.32;2443.12;3.026
31.33;2443.3;3.027
31.35;2442.83;3.027
31.37;2442.72;3.028
31.38;2443.08;3.029
31.4;2443.08;3.029
31.42;2442.82;3.03
31.43;2443.02;3.031
31.45;2444.02;3.032
31.47;2443.6;3.033
31.48;2444.05;3.033
31.5;2443.74;3.034
31.52;2443.56;3.035
31.53;2443.82;3.036
31.55;2444.32;3.037
31.57;2443.69;3.038
31.58;2444.75;3.039
31.6;2445.2;3.04
31.62;2445.38;3.041
31.63;2445.55;3.042
31.65;2444.93;3.043
31.67;2443.9;3.044
31.68;2443.96;3.044
31.7;2444.39;3.045
31.72;2445.19;3.047
31.73;2445.5;3.048
31.75;2445.79;3.049
31.77;2445.75;3.05
31.78;2446.05;3.051
31.8;2446.04;3.052
31.82;2445.39;3.053
31.83;2446.01;3.054
31.85;2446.62;3.056
31.87;2447.44;3.057
31.88;2448.22;3.058
31.9;2448.64;3.059
31.92;2448.05;3.061
31.93;2446.89;3.061
31.95;2446.18;3.062
31.97;2446.42;3.064
31.98;2447.14;3.065
32;2447.81;3.067
32.02;2447.8;3.068
32.03;2447.85;3.069
32.05;2447.83;3.071
32.07;2447.25;3.072
32.08;2446.97;3.073
32.1;2446.7;3.075
32.12;2447.45;3.076
32.13;2447.17;3.077
32.15;2447.01;3.079
32.17;2446.75;3.08
32.18;2447.61;3.082
32.2;2447.29;3.083
32.22;2447.49;3.085
32.23;2446.72;3.086
32.25;2447.23;3.088
32.27;2447.88;3.089
32.28;2447.67;3.091
32.3;2447.51;3.092
32.32;2447.59;3.094
32.33;2447.12;3.096
32.35;2446.74;3.097
32.37;2446.82;3.099
32.38;2447.18;3.101
32.4;2448.25;3.103
32.42;2448.39;3.105
32.43;2449.07;3.107
32.45;2447.76;3.108
32.47;2447.78;3.11
32.48;2447.62;3.112
32.5;2448.45;3.114
32.52;2448.16;3.116
32.53;2448.86;3.118
32.55;2449.47;3.12
32.57;2449.1;3.122
32.58;2449.64;3.124
32.6;2449.76;3.127
32.62;2449.62;3.129
32.63;2449.47;3.131
32.65;2449.86;3.133
32.67;2449.87;3.135
32.68;2451.02;3.137
32.7;2450.96;3.14
32.72;2451.15;3.142
32.73;2450.71;3.144
32.75;2450.51;3.146
32.77;2449.75;3.148
32.78;2450.48;3.151
32.8;2450.34;3.153
32.82;2450.45;3.156
32.83;2450.61;3.158
32.85;2450.76;3.161
32.87;2450.75;3.163
32.88;2450.28;3.166
32.9;2450.37;3.168
32.92;2450.23;3.171
32.93;2450.99;3.173
32.95;2450.5;3.176
32.97;2450.74;3.179
32.98;2450.55;3.181
33;2450.9;3.184
33.02;2450.73;3.187
33.03;2450.77;3.189
33.05;2450.83;3.192
33.07;2451.47;3.195
33.08;2451.75;3.198
33.1;2451.97;3.201
33.12;2451.78;3.204
33.13;2451.08;3.207
33.15;2451.7;3.21
33.17;2452.29;3.213
33.18;2451.88;3.216
33.2;2452.61;3.219
33.22;2453.12;3.222
33.23;2452.66;3.225
33.25;2452.25;3.228
33.27;2452.48;3.231
33.28;2451.92;3.235
33.3;2452.09;3.238
33.32;2452.11;3.241
33.33;2453.11;3.245
33.35;2453.04;3.248
33.37;2453.69;3.251
33.38;2453.65;3.255
33.4;2454.16;3.258
33.42;2454.36;3.262
33.43;2453.79;3.265
33.45;2452.95;3.268
33.47;2453.81;3.272
33.48;2454.02;3.276
33.5;2455.16;3.28
33.52;2454.97;3.283
33.53;2455.17;3.287
33.55;2454.97;3.291
33.57;2455.44;3.294
33.58;2455.15;3.298
33.6;2454.91;3.302
33.62;2455.37;3.306
33.63;2456.27;3.31
33.65;2456.62;3.314
33.67;2455.98;3.317
33.68;2456.3;3.321
33.7;2455.31;3.325
33.72;2455.93;3.329
33.73;2456.23;3.333
33.75;2455.54;3.337
33.77;2456.29;3.342
33.78;2456.53;3.346
33.8;2456.62;3.35
33.82;2456.53;3.354
33.83;2456.15;3.358
33.85;2456.06;3.362
33.87;2456.05;3.366
33.88;2456.08;3.371
33.9;2457.09;3.375
33.92;2457.62;3.38
33.93;2457.26;3.384
33.95;2457.37;3.388
33.97;2457.2;3.393
33.98;2457.15;3.397
34;2457.19;3.401
34.02;2457.18;3.406
34.03;2457.04;3.411
34.05;2457.98;3.415
34.07;2457.58;3.42
34.08;2457.28;3.424
34.1;2456.74;3.429
34.12;2456.79;3.433
34.13;2456.25;3.438
34.15;2456.77;3.443
34.17;2457.36;3.448
34.18;2456.93;3.453
34.2;2456.91;3.457
34.22;2457.01;3.462
34.23;2456.97;3.467
34.25;2457.08;3.472
34.27;2456.52;3.477
34.28;2457.19;3.482
34.3;2457.59;3.487
34.32;2457.88;3.492
34.33;2458.33;3.497
34.35;2458.62;3.502
34.37;2458.37;3.507
34.38;2458.47;3.512
34.4;2458.13;3.517
34.42;2457.78;3.522
34.43;2457.41;3.527
34.45;2457.66;3.533
34.47;2458.14;3.538
34.48;2458.01;3.543
34.5;2457.77;3.548
34.52;2457.58;3.554
34.53;2457.02;3.559
34.55;2457.29;3.564
34.57;2457.17;3.57
34.58;2457.86;3.576
34.6;2457.87;3.581
34.62;2458.29;3.586
34.63;2457.85;3.592
34.65;2457.74;3.597
34.67;2458.05;3.603
34.68;2457.89;3.608
34.7;2458;3.614
34.72;2458.94;3.62
34.73;2459.59;3.626
34.75;2459.02;3.631
34.77;2458.2;3.637
34.78;2459.08;3.643
34.8;2458.8;3.649
34.82;2458.49;3.655
34.83;2458.56;3.661
34.85;2458.76;3.667
34.87;2459.61;3.673
34.88;2459.99;3.679
34.9;2459.43;3.685
34.92;2459.2;3.691
34.93;2458.66;3.697
34.95;2459.44;3.703
34.97;2459.2;3.71
34.98;2459.48;3.716
35;2459.74;3.722
35.02;2460.05;3.729
35.03;2460.27;3.735
35.05;2460.5;3.741
35.07;2459.71;3.748
35.08;2459.1;3.754
35.1;2460.5;3.761
35.12;2460.95;3.767
35.13;2461.36;3.774
35.15;2461.33;3.78
35.17;2460.99;3.786
35.18;2460.49;3.793
35.2;2460.87;3.8
35.22;2460.91;3.806
35.23;2461.44;3.813
35.25;2461.56;3.82
35.27;2462.11;3.827
35.28;2462.07;3.834
35.3;2462.33;3.841
35.32;2461.62;3.847
35.33;2461.87;3.854
35.35;2461.49;3.861
35.37;2461.74;3.868
35.38;2462.38;3.875
35.4;2462.93;3.882
35.42;2462.85;3.89
35.43;2463.18;3.897
35.45;2462.71;3.904
35.47;2462.89;3.911
35.48;2463.2;3.918
35.5;2463.63;3.926
35.52;2463.49;3.933
35.53;2464.54;3.941
35.55;2464.65;3.948
35.57;2464.92;3.955
35.58;2464.49;3.963
35.6;2464.88;3.97
35.62;2464.13;3.978
35.63;2465.05;3.986
35.65;2465.55;3.993
35.67;2465.71;4.001
35.68;2465.91;4.009
35.7;2466.21;4.017
35.72;2465.72;4.024
35.73;2465.61;4.032
35.75;2465.32;4.04
35.77;2466.06;4.048
35.78;2466.57;4.056
35.8;2466.51;4.065
35.82;2467.26;4.073
35.83;2467.47;4.081
35.85;2466.94;4.089
35.87;2466.54;4.097
35.88;2467.4;4.105
35.9;2467.95;4.114
35.92;2468.73;4.123
35.93;2468.8;4.131
35.95;2468.48;4.14
35.97;2468.37;4.148
35.98;2469.09;4.157
36;2468.99;4.165
36.02;2469.17;4.174
36.03;2469.72;4.183
36.05;2469;4.192
36.07;2468.96;4.2
36.08;2469.97;4.209
36.1;2469.68;4.218
36.12;2470.26;4.228
36.13;2469.87;4.236
36.15;2469.69;4.246
36.17;2470.24;4.255
36.18;2470.62;4.264
36.2;2470.43;4.274
36.22;2470.64;4.283
36.23;2471.13;4.293
36.25;2471.19;4.302
36.27;2470.89;4.312
36.28;2471.26;4.321
36.3;2471.39;4.331
36.32;2471.77;4.341
36.33;2472.87;4.351
36.35;2473.15;4.361
36.37;2472.95;4.371
36.38;2473.34;4.381
36.4;2473.73;4.391
36.42;2473.59;4.401
36.43;2473.81;4.411
36.45;2474.42;4.421
36.47;2474.01;4.432
36.48;2474.29;4.442
36.5;2474.24;4.453
36.52;2475.12;4.463
36.53;2474.88;4.474
36.55;2474.6;4.484
36.57;2474.37;4.495
36.58;2475.05;4.506
36.6;2475.07;4.517
36.62;2475.41;4.528
36.63;2475.26;4.539
36.65;2475.81;4.55
36.67;2475.27;4.561
36.68;2475.14;4.572
36.7;2475.96;4.584
36.72;2475.8;4.596
36.73;2476.66;4.607
36.75;2476.73;4.619
36.77;2477.07;4.63
36.78;2477.7;4.642
36.8;2477.8;4.654
36.82;2477.61;4.666
36.83;2477.7;4.678
36.85;2478.13;4.69
36.87;2478.29;4.702
36.88;2478.96;4.714
36.9;2478.74;4.726
36.92;2478.93;4.739
36.93;2479.22;4.751
36.95;2479.71;4.764
36.97;2479.87;4.777
36.98;2479.75;4.789
37;2480.35;4.802
37.02;2480.29;4.815
37.03;2480.16;4.828
37.05;2480.94;4.841
37.07;2481.88;4.854
37.08;2481.83;4.868
37.1;2481.89;4.881
37.12;2481.88;4.894
37.13;2482.91;4.908
37.15;2482.65;4.921
37.17;2483.2;4.935
37.18;2483.66;4.948
37.2;2484.22;4.962
37.22;2484.54;4.976
37.23;2484.6;4.99
37.25;2485.22;5.004
37.27;2485.4;5.018
37.28;2485.54;5.035
37.3;2486.09;5.051
37.32;2485.41;5.068
37.33;2486.3;4.502
37.35;2485.47;-1.404
37.37;2485.62;-1.676
37.38;2485.48;-1.479
37.4;2486.15;-1.536
37.42;2486.25;-1.549
37.43;2486.53;-1.528
37.45;2487.11;-1.543
37.47;2487.33;-1.542
37.48;2487.31;-1.55
37.5;2485.44;-1.55
37.52;2486.84;-1.54
37.53;2488.79;-1.546
37.55;2491.31;-1.553
37.57;2488.49;-1.551
37.58;2488.06;-1.554
37.6;2485.27;-1.547
37.62;2486.04;-1.554
37.63;2487.39;-1.558
37.65;2486.8;-1.554
37.67;2486.2;-1.552
37.68;2485.6;-1.561
37.7;2485.35;-1.555
37.72;2485.23;-1.566
37.73;2485.31;-1.58
37.75;2485.32;-1.59
37.77;2484.79;-1.598
37.78;2483.81;-1.651
37.8;2483.8;-1.666
37.82;2483.64;-1.701
37.83;2484.19;-1.745
37.85;2483.99;-1.779
37.87;2483.35;-1.786
37.88;2482.8;-1.805
37.9;2482.8;-1.796
37.92;2482.65;-1.804
37.93;2482.45;-1.795
37.95;2482.03;-1.8
37.97;2482.03;-1.798
37.98;2481.4;-1.799
38;2481.41;-1.801
38.02;2481.21;-1.799
38.03;2481.34;-1.801
38.05;2480.32;-1.8
38.07;2480.49;-1.801
38.08;2480.29;-1.801
38.1;2480.07;-1.8
38.12;2480.39;-1.801
38.13;2479.53;-1.8
38.15;2479.07;-1.8
38.17;2478.43;-1.801
38.18;2477.54;-1.8
38.2;2477.32;-1.8
38.22;2476.64;-1.8
38.23;2477.04;-1.8
38.25;2476.9;-1.801
38.27;2476.48;-1.8
38.28;2476.46;-1.801
38.3;2476.39;-1.801
38.32;2475.76;-1.801
38.33;2475.71;-1.801
38.35;2475.14;-1.802
38.37;2474.81;-1.801
38.38;2475.15;-1.802
38.4;2475.37;-1.802
38.42;2475.38;-1.802
38.43;2475.01;-1.802
38.45;2474.67;-1.801
38.47;2473.78;-1.801
38.48;2473.18;-1.801
38.5;2473.83;-1.801
38.52;2474.02;-1.802
38.53;2473.83;-1.801
38.55;2474.05;-1.802
38.57;2473.2;-1.802
38.58;2473.01;-1.802
38.6;2472.8;-1.802
38.62;2472.12;-1.802
38.63;2472.96;-1.802
38.65;2472.37;-1.802
38.67;2471.97;-1.802
38.68;2471.45;-1.802
38.7;2471.88;-1.802
38.72;2471.38;-1.802
38.73;2471.81;-1.802
38.75;2471.24;-1.802
38.77;2471.19;-1.802
38.78;2471.39;-1.802
38.8;2471.27;-1.802
38.82;2471.35;-1.802
38.83;2470.47;-1.803
38.85;2470.47;-1.803
38.87;2470.27;-1.803
38.88;2470.47;-1.803
38.9;2470.75;-1.803
38.92;2471.37;-1.803
38.93;2470.69;-1.803
38.95;2470.87;-1.803
38.97;2470.39;-1.803
38.98;2469.62;-1.803
39;2470.01;-1.803
39.02;2470.15;-1.803
39.03;2469.75;-1.803
39.05;2470.02;-1.803
39.07;2469.84;-1.803
39.08;2469.5;-1.803
39.1;2469.53;-1.803
39.12;2469.84;-1.803
39.13;2469.68;-1.803
39.15;2469.81;-1.803
39.17;2470.08;-1.803
39.18;2470.2;-1.803
39.2;2470.06;-1.804
39.22;2470.15;-1.803
39.23;2470.3;-1.803
39.25;2470.2;-1.803
39.27;2469.75;-1.803
39.28;2469.94;-1.803
39.3;2470.04;-1.804
39.32;2469.81;-1.804
39.33;2469.65;-1.804
39.35;2469.9;-1.804
39.37;2469.96;-1.804
39.38;2469.85;-1.804
39.4;2469.63;-1.804
39.42;2469.56;-1.804
39.43;2469.7;-1.804
39.45;2469.35;-1.804
39.47;2469.5;-1.804
39.48;2469.75;-1.804
39.5;2469.4;-1.804
39.52;2469.21;-1.804
39.53;2469.44;-1.804
39.55;2469.46;-1.804
39.57;2469.44;-1.804
39.58;2469.8;-1.804
39.6;2469.72;-1.804
39.62;2470.23;-1.804
39.63;2470.22;-1.804
39.65;2469.81;-1.804
39.67;2469.96;-1.804
39.68;2470.21;-1.804
39.7;2470.4;-1.804
39.72;2470.14;-1.804
39.73;2471.07;-1.804
39.75;2470.74;-1.804
39.77;2470.22;-1.804
39.78;2469.68;-1.804
39.8;2469.73;-1.804
39.82;2469.72;-1.804
39.83;2469.27;-1.804
39.85;2470.43;-1.804
39.87;2469.9;-1.804
39.88;2469.67;-1.804
39.9;2469.93;-1.804
39.92;2469.95;-1.804
39.93;2470.65;-1.804
39.95;2470.08;-1.804
39.97;2470.44;-1.804
39.98;2469.92;-1.805
40;2470.01;-1.805
40.02;2470.1;-1.805
40.03;2470.42;-1.805
40.05;2470.1;-1.805
40.07;2470.79;-1.805
40.08;2470.59;-1.805
40.1;2470.84;-1.805
40.12;2470.6;-1.805
40.13;2469.83;-1.805
40.15;2470.01;-1.805
40.17;2469.5;-1.805
40.18;2469.15;-1.805
40.2;2469.99;-1.805
40.22;2469.3;-1.805
40.23;2468.71;-1.805
40.25;2468.77;-1.805
40.27;2469.27;-1.805
40.28;2468.06;-1.805
40.3;2468.42;-1.805
40.32;2468.69;-1.805
40.33;2468.09;-1.805
40.35;2468.05;-1.805
40.37;2467.84;-1.805
40.38;2467.88;-1.805
40.4;2467.69;-1.805
40.42;2468.03;-1.805
40.43;2467.85;-1.805
40.45;2468.5;-1.805
40.47;2468.18;-1.805
40.48;2468.09;-1.805
40.5;2468.77;-1.805
40.52;2468.47;-1.805
40.53;2468;-1.805
40.55;2468.43;-1.805
40.57;2468.1;-1.805
40.58;2467.48;-1.805
40.6;2467.43;-1.805
40.62;2467.7;-1.805
40.63;2466.96;-1.805
40.65;2466.95;-1.805
40.67;2467.37;-1.805
40.68;2467.02;-1.805
40.7;2466.97;-1.806
40.72;2466.92;-1.806
40.73;2467.08;-1.806
40.75;2466.9;-1.806
40.77;2467.31;-1.806
40.78;2466.69;-1.806
40.8;2466.75;-1.806
40.82;2466.47;-1.805
40.83;2467.2;-1.805
40.85;2466.33;-1.805
40.87;2466.34;-1.805
40.88;2466.8;-1.806
40.9;2466.68;-1.806
40.92;2466.55;-1.806
40.93;2466.04;-1.806
40.95;2466.26;-1.806
40.97;2465.73;-1.806
40.98;2465.76;-1.806
41;2465.59;-1.806
41.02;2466.05;-1.806
41.03;2465.67;-1.806
41.05;2465.92;-1.806
41.07;2464.64;-1.806
41.08;2465.68;-1.806
41.1;2466.11;-1.806
41.12;2466.45;-1.806
41.13;2466.65;-1.806
41.15;2466.27;-1.806
41.17;2466.2;-1.806
41.18;2466.34;-1.806
41.2;2467.03;-1.806
41.22;2467.36;-1.806
41.23;2468.07;-1.806
41.25;2468.56;-1.806
41.27;2468.13;-1.806
41.28;2468.28;-1.806
41.3;2467.6;-1.806
41.32;2468.89;-1.806
41.33;2469.41;-1.806
41.35;2469.33;-1.806
41.37;2469.8;-1.806
41.38;2469.36;-1.806
41.4;2469.74;-1.806
41.42;2469.89;-1.806
41.43;2469.87;-1.806
41.45;2470.02;-1.806
41.47;2469.79;-1.806
41.48;2469.69;-1.806
41.5;2470.64;-1.806
41.52;2470.66;-1.806
41.53;2471.1;-1.806
41.55;2471.39;-1.806
41.57;2470.91;-1.806
41.58;2470.75;-1.806
41.6;2471.14;-1.806
41.62;2471.57;-1.806
41.63;2471.55;-1.806
41.65;2471.87;-1.806
41.67;2472.2;-1.806
41.68;2472.15;-1.806
41.7;2472.02;-1.806
41.72;2472.47;-1.806
41.73;2473.32;-1.806
41.75;2472.91;-1.806
41.77;2472.91;-1.806
41.78;2472.69;-1.806
41.8;2473.2;-1.806
41.82;2472.69;-1.806
41.83;2472.56;-1.806
41.85;2472.47;-1.806
41.87;2472.8;-1.807
41.88;2472.48;-1.807
41.9;2472;-1.807
41.92;2472.04;-1.807
41.93;2472.12;-1.807
41.95;2472.72;-1.807
41.97;2471.86;-1.806
41.98;2472.21;-1.806
42;2472.55;-1.806
42.02;2472.14;-1.806
42.03;2471.65;-1.806
42.05;2471.62;-1.806
42.07;2471.31;-1.807
42.08;2471.28;-1.807
42.1;2471.28;-1.807
42.12;2470.48;-1.807
42.13;2470.31;-1.807
42.15;2470.38;-1.807
42.17;2470.16;-1.807
42.18;2470.18;-1.807
42.2;2470.64;-1.807
42.22;2469.9;-1.807
42.23;2470.57;-1.807
42.25;2469.64;-1.807
42.27;2468.97;-1.807
42.28;2468.91;-1.807
42.3;2468.95;-1.807
42.32;2469.03;-1.807
42.33;2469.11;-1.807
42.35;2468.5;-1.807
42.37;2467.87;-1.807
42.38;2467.5;-1.807
42.4;2467.45;-1.807
42.42;2468.15;-1.807
42.43;2468.23;-1.807
42.45;2467.79;-1.807
42.47;2467.86;-1.807
42.48;2467.72;-1.807
42.5;2468.06;-1.807
42.52;2467.71;-1.807
42.53;2468.29;-1.807
42.55;2468.63;-1.807
42.57;2468.16;-1.807
42.58;2467.77;-1.807
42.6;2466.82;-1.807
42.62;2466.9;-1.807
42.63;2467.09;-1.807
42.65;2466.68;-1.807
42.67;2466.36;-1.807
42.68;2466.7;-1.807
42.7;2466.44;-1.807
42.72;2466.49;-1.807
42.73;2466.37;-1.807
42.75;2466.3;-1.807
42.77;2465.99;-1.807
42.78;2466.02;-1.807
42.8;2466.1;-1.807
42.82;2467;-1.807
42.83;2466.73;-1.807
42.85;2466.69;-1.807
42.87;2466.45;-1.807
42.88;2466.36;-1.807
42.9;2466.49;-1.807
42.92;2466.95;-1.807
42.93;2466.33;-1.807
42.95;2466.53;-1.807
42.97;2466.24;-1.807
42.98;2466.51;-1.807
43;2465.76;-1.807
43.02;2465.92;-1.807
43.03;2465.77;-1.807
43.05;2466.29;-1.807
43.07;2466.08;-1.807
43.08;2465.43;-1.807
43.1;2465.18;-1.807
43.12;2465.52;-1.807
43.13;2465.27;-1.807
43.15;2464.94;-1.807
43.17;2464.56;-1.807
43.18;2464.4;-1.807
43.2;2464.26;-1.807
43.22;2465.06;-1.807
43.23;2465.51;-1.807
43.25;2465.3;-1.807
43.27;2465.01;-1.807
43.28;2464.92;-1.807
43.3;2464.51;-1.807
43.32;2464.31;-1.807
43.33;2463.94;-1.808
43.35;2464.58;-1.807
43.37;2464.43;-1.807
43.38;2463.63;-1.808
43.4;2464.1;-1.807
43.42;2463.65;-1.807
43.43;2463.36;-1.807
43.45;2463.47;-1.808
43.47;2463.36;-1.807
43.48;2462.73;-1.807
43.5;2462.98;-1.807
43.52;2462.77;-1.807
43.53;2462.58;-1.807
43.55;2462.24;-1.807
43.57;2461.47;-1.807
43.58;2461.76;-1.808
43.6;2461.45;-1.808
43.62;2461.55;-1.808
43.63;2462.16;-1.808
43.65;2462.72;-1.808
43.67;2461.93;-1.808
43.68;2460.98;-1.808
43.7;2460.95;-1.808
43.72;2461.68;-1.808
43.73;2461.42;-1.808
43.75;2461.46;-1.808
43.77;2461.32;-1.808
43.78;2461.59;-1.808
43.8;2461.39;-1.808
43.82;2460.99;-1.808
43.83;2460.71;-1.808
43.85;2460.94;-1.808
43.87;2460.89;-1.808
43.88;2460.42;-1.808
43.9;2459.93;-1.808
43.92;2459.88;-1.808
43.93;2459.91;-1.808
43.95;2460.02;-1.808
43.97;2459.18;-1.808
43.98;2458.69;-1.808
44;2459.43;-1.808
44.02;2459.52;-1.808
44.03;2458.87;-1.808
44.05;2459.85;-1.808
44.07;2459.57;-1.808
44.08;2458.56;-1.808
44.1;2459.13;-1.808
44.12;2458.58;-1.808
44.13;2458.86;-1.808
44.15;2458.29;-1.808
44.17;2458.52;-1.808
44.18;2458.45;-1.808
44.2;2458.68;-1.808
44.22;2458.59;-1.808
44.23;2458.58;-1.808
44.25;2458.35;-1.808
44.27;2458.18;-1.808
44.28;2458.36;-1.808
44.3;2457.31;-1.808
44.32;2457.15;-1.808
44.33;2456.98;-1.808
44.35;2457.14;-1.808
44.37;2457.93;-1.808
44.38;2457.12;-1.808
44.4;2456.76;-1.808
44.42;2456.58;-1.808
44.43;2457.1;-1.808
44.45;2456.94;-1.808
44.47;2457.44;-1.808
44.48;2456.47;-1.808
44.5;2456.5;-1.808
44.52;2456.65;-1.808
44.53;2456.39;-1.808
44.55;2456.94;-1.808
44.57;2457.15;-1.808
44.58;2457.03;-1.808
44.6;2456.81;-1.808
44.62;2456.99;-1.808
44.63;2456.8;-1.808
44.65;2456.54;-1.808
44.67;2456.14;-1.808
44.68;2456.44;-1.808
44.7;2456.77;-1.808
44.72;2456.23;-1.808
44.73;2455.92;-1.808
44.75;2455.79;-1.808
44.77;2455.53;-1.808
44.78;2455.77;-1.808
44.8;2456.06;-1.808
44.82;2456.09;-1.808
44.83;2455.82;-1.808
44.85;2455.65;-1.808
44.87;2455.31;-1.808
44.88;2455.77;-1.808
44.9;2455.17;-1.808
44.92;2455.77;-1.808
44.93;2455.8;-1.808
44.95;2456.24;-1.808
44.97;2455.98;-1.808
44.98;2455.1;-1.808
45;2454.93;-1.808
45.02;2454.94;-1.808
45.03;2455.09;-1.808
45.05;2454.79;-1.808
45.07;2454.58;-1.808
45.08;2454.88;-1.808
45.1;2454.6;-1.808
45.12;2454.71;-1.808
45.13;2454.38;-1.808
45.15;2454.06;-1.808
45.17;2453.92;-1.808
45.18;2453.94;-1.808
45.2;2453.26;-1.808
45.22;2453.46;-1.808
45.23;2453.22;-1.808
45.25;2453.96;-1.808
45.27;2453.18;-1.808
45.28;2453.57;-1.808
45.3;2453.86;-1.808
45.32;2453.67;-1.808
45.33;2453.57;-1.808
45.35;2453.15;-1.808
45.37;2453.65;-1.808
45.38;2453.42;-1.808
45.4;2453.19;-1.808
45.42;2453.59;-1.808
45.43;2453.4;-1.808
45.45;2453.66;-1.808
45.47;2453.19;-1.808
45.48;2452.82;-1.808
45.5;2453.08;-1.808
45.52;2453.13;-1.808
45.53;2453.26;-1.808
45.55;2453.32;-1.808
45.57;2452.95;-1.808
45.58;2453.13;-1.808
45.6;2452.03;-1.809
45.62;2451.57;-1.809
45.63;2452.46;-1.809
45.65;2451.98;-1.809
45.67;2452.61;-1.809
45.68;2452.76;-1.809
45.7;2452.82;-1.808
45.72;2452.75;-1.808
45.73;2452.71;-1.808
45.75;2452.65;-1.808
45.77;2453.09;-1.808
45.78;2453.21;-1.808
45.8;2452.9;-1.808
45.82;2452.76;-1.809
45.83;2452.65;-1.809
45.85;2452.74;-1.809
45.87;2452.57;-1.809
45.88;2452.48;-1.809
45.9;2452.88;-1.809
45.92;2452.65;-1.809
45.93;2452.45;-1.809
45.95;2452.47;-1.809
45.97;2452.54;-1.809
45.98;2452.03;-1.809
46;2452.27;-1.809
46.02;2452.45;-1.809
46.03;2452.23;-1.809
46.05;2452.56;-1.809
46.07;2453.04;-1.809
46.08;2453.18;-1.809
46.1;2453.32;-1.809
46.12;2452.82;-1.809
46.13;2453.38;-1.809
46.15;2452.94;-1.809
46.17;2452.33;-1.809
46.18;2452.2;-1.809
46.2;2453.4;-1.809
46.22;2453.27;-1.809
46.23;2453.45;-1.809
46.25;2453.27;-1.809
46.27;2453.13;-1.809
46.28;2451.75;-1.809
46.3;2451.41;-1.809
46.32;2451.99;-1.809
46.33;2452.21;-1.809
46.35;2451.65;-1.809
46.37;2452.03;-1.809
46.38;2451.27;-1.809
46.4;2451.58;-1.809
46.42;2450.96;-1.809
46.43;2451.51;-1.809
46.45;2451.75;-1.809
46.47;2452;-1.809
46.48;2451.9;-1.809
46.5;2452.12;-1.809
46.52;2451.31;-1.809
46.53;2451.71;-1.809
46.55;2451;-1.809
46.57;2451.65;-1.809
46.58;2451.7;-1.809
46.6;2452.15;-1.809
46.62;2452.4;-1.809
46.63;2452.3;-1.809
46.65;2451.64;-1.809
46.67;2452.04;-1.809
46.68;2451;-1.809
46.7;2450.97;-1.809
46.72;2451.41;-1.809
46.73;2452.05;-1.809
46.75;2452.03;-1.809
46.77;2451.81;-1.809
46.78;2452.27;-1.809
46.8;2451.6;-1.809
46.82;2450.75;-1.809
46.83;2451.45;-1.809
46.85;2451.21;-1.809
46.87;2451.86;-1.809
46.88;2451.84;-1.809
46.9;2451.65;-1.809
46.92;2451.43;-1.809
46.93;2451.28;-1.809
46.95;2451.19;-1.809
46.97;2451.53;-1.809
46.98;2451.8;-1.809
47;2452.02;-1.809
47.02;2451.86;-1.809
47.03;2451.69;-1.809
47.05;2451.98;-1.809
47.07;2451.97;-1.809
47.08;2451.79;-1.809
47.1;2451.64;-1.809
47.12;2451.6;-1.809
47.13;2452.17;-1.809
47.15;2452.61;-1.809
47.17;2452.49;-1.809
47.18;2452.41;-1.809
47.2;2451.68;-1.809
47.22;2452.12;-1.809
47.23;2452.49;-1.809
47.25;2452.16;-1.809
47.27;2452.67;-1.809
47.28;2452.52;-1.809
47.3;2453.1;-1.809
47.32;2452.81;-1.809
47.33;2452.65;-1.809
47.35;2452.26;-1.809
47.37;2452.39;-1.809
47.38;2453.28;-1.809
47.4;2453.35;-1.809
47.42;2453.21;-1.809
47.43;2453.93;-1.809
47.45;2453.27;-1.809
47.47;2452.74;-1.809
47.48;2453;-1.809
47.5;2453.05;-1.809
47.52;2452.96;-1.809
47.53;2452.87;-1.809
47.55;2453.57;-1.809
47.57;2453.72;-1.809
47.58;2453.03;-1.809
47.6;2452.43;-1.809
47.62;2452.05;-1.809
47.63;2452.94;-1.809
47.65;2453.09;-1.809
47.67;2452.99;-1.809
47.68;2453.6;-1.809
47.7;2453.58;-1.809
47.72;2453.46;-1.809
47.73;2453.37;-1.809
47.75;2453.44;-1.809
47.77;2453.01;-1.809
47.78;2453.2;-1.809
47.8;2453.3;-1.809
47.82;2453.54;-1.809
47.83;2453.4;-1.809
47.85;2454.05;-1.809
47.87;2453.89;-1.809
47.88;2453.75;-1.809
47.9;2453.59;-1.809
47.92;2453.32;-1.809
47.93;2453.83;-1.809
47.95;2453.53;-1.809
47.97;2453.77;-1.809
47.98;2453.62;-1.809
48;2453.36;-1.809
48.02;2452.53;-1.809
48.03;2452.74;-1.809
48.05;2453.05;-1.809
48.07;2453.42;-1.809
48.08;2452.93;-1.809
48.1;2453.63;-1.809
48.12;2453.12;-1.809
48.13;2452.79;-1.809
48.15;2453;-1.809
48.17;2452.65;-1.809
48.18;2452.82;-1.809
48.2;2452.98;-1.809
48.22;2453.08;-1.809
48.23;2453.49;-1.809
48.25;2454.16;-1.809
48.27;2454.5;-1.809
48.28;2453.73;-1.809
48.3;2453.5;-1.809
48.32;2453.84;-1.809
48.33;2453.45;-1.809
48.35;2453.61;-1.809
48.37;2454.16;-1.809
48.38;2454.37;-1.809
48.4;2453.81;-1.809
48.42;2454;-1.81
48.43;2454.08;-1.81
48.45;2454.02;-1.81
48.47;2453.92;-1.809
48.48;2454.12;-1.809
48.5;2454.78;-1.809
48.52;2454.61;-1.809
48.53;2454.25;-1.809
48.55;2454.48;-1.809
48.57;2454.57;-1.809
48.58;2454.65;-1.809
48.6;2454.7;-1.809
48.62;2454.97;-1.809
48.63;2455.09;-1.809
48.65;2455.1;-1.81
48.67;2455.28;-1.81
48.68;2454.99;-1.81
48.7;2455.26;-1.81
48.72;2454.38;-1.81
48.73;2454.66;-1.81
48.75;2454.56;-1.81
48.77;2454.82;-1.809
48.78;2454.89;-1.809
48.8;2454.83;-1.809
48.82;2454.56;-1.809
48.83;2454.49;-1.809
48.85;2454.43;-1.809
48.87;2454.88;-1.809
48.88;2454.83;-1.809
48.9;2454.72;-1.809
48.92;2454.56;-1.809
48.93;2455.22;-1.809
48.95;2455.56;-1.81
48.97;2455.11;-1.81
48.98;2455.2;-1.81
49;2455.09;-1.81
49.02;2455.46;-1.81
49.03;2456.11;-1.81
49.05;2456.03;-1.81
49.07;2456.91;-1.81
49.08;2456.7;-1.81
49.1;2456.18;-1.809
49.12;2455.54;-1.809
49.13;2455.25;-1.809
49.15;2456.55;-1.81
49.17;2456.37;-1.81
49.18;2457.02;-1.81
49.2;2456.49;-1.81
49.22;2457.23;-1.81
49.23;2456.35;-1.81
49.25;2456.44;-1.81
49.27;2456.37;-1.81
49.28;2456.97;-1.81
49.3;2456.58;-1.81
49.32;2456.85;-1.81
49.33;2457.16;-1.81
49.35;2457.86;-1.81
49.37;2457.88;-1.81
49.38;2457.59;-1.81
49.4;2458.02;-1.81
49.42;2457.57;-1.81
49.43;2457.99;-1.81
49.45;2458.56;-1.81
49.47;2459.26;-1.81
49.48;2458.62;-1.81
49.5;2458.65;-1.81
49.52;2457.84;-1.81
49.53;2458.25;-1.81
49.55;2458.43;-1.81
49.57;2458.87;-1.81
49.58;2459.23;-1.81
49.6;2459.6;-1.81
49.62;2459.07;-1.81
49.63;2458.67;-1.81
49.65;2458.67;-1.81
49.67;2458.2;-1.81
49.68;2458.44;-1.81
49.7;2458.99;-1.81
49.72;2458.67;-1.81
49.73;2459.82;-1.81
49.75;2459.7;-1.81
49.77;2460.13;-1.81
49.78;2459.6;-1.81
49.8;2459.86;-1.81
49.82;2459.53;-1.81
49.83;2461.06;-1.81
49.85;2460.27;-1.81
49.87;2461.17;-1.81
49.88;2461.36;-1.81
49.9;2460.6;-1.81
49.92;2460.18;-1.81
49.93;2460.4;-1.81
49.95;2460.05;-1.81
49.97;2459.94;-1.81
49.98;2460.06;-1.81
50;2461.01;-1.81
50.02;2460.98;-1.81
50.03;2460.34;-1.81
50.05;2460.14;-1.81
50.07;2459.54;-1.81
50.08;2459.02;-1.81
50.1;2459.54;-1.81
50.12;2459.86;-1.81
50.13;2460.21;-1.81
50.15;2460.37;-1.81
50.17;2460.59;-1.81
50.18;2460.52;-1.81
50.2;2459.9;-1.81
50.22;2459.39;-1.81
50.23;2460.55;-1.81
50.25;2461.07;-1.81
50.27;2461.18;-1.81
50.28;2461.26;-1.81
50.3;2461.01;-1.81
50.32;2461.09;-1.81
50.33;2460.87;-1.81
50.35;2460.65;-1.81
50.37;2461.16;-1.81
50.38;2461.69;-1.81
50.4;2461.83;-1.81
50.42;2462.35;-1.81
50.43;2461.62;-1.81
50.45;2461.67;-1.81
50.47;2461.45;-1.81
50.48;2462;-1.81
50.5;2461.43;-1.81
50.52;2461.58;-1.81
50.53;2462.2;-1.81
50.55;2462.66;-1.81
50.57;2462.01;-1.81
50.58;2462.23;-1.81
50.6;2462.12;-1.81
50.62;2461.39;-1.81
50.63;2462.06;-1.81
50.65;2462.45;-1.81
50.67;2462.78;-1.81
50.68;2463.18;-1.81
50.7;2463;-1.81
50.72;2462.9;-1.81
50.73;2462.7;-1.81
50.75;2463.35;-1.81
50.77;2463.31;-1.81
50.78;2463.58;-1.81
50.8;2463.45;-1.81
50.82;2463.58;-1.81
50.83;2464.06;-1.81
50.85;2464.9;-1.81
50.87;2464.49;-1.81
50.88;2464.42;-1.81
50.9;2464.74;-1.81
50.92;2465.14;-1.81
50.93;2465.6;-1.81
50.95;2466.17;-1.81
50.97;2466.13;-1.81
50.98;2466.23;-1.81
51;2466.46;-1.81
51.02;2466.06;-1.81
51.03;2466;-1.81
51.05;2466.74;-1.81
51.07;2467.97;-1.81
51.08;2467.8;-1.81
51.1;2467.74;-1.81
51.12;2468.41;-1.81
51.13;2467.72;-1.81
51.15;2467.76;-1.81
51.17;2467.26;-1.81
51.18;2467.23;-1.81
51.2;2467.33;-1.81
51.22;2467.6;-1.81
51.23;2467.61;-1.81
51.25;2467.11;-1.81
51.27;2466.89;-1.81
51.28;2466.53;-1.81
51.3;2467.15;-1.81
51.32;2466.85;-1.81
51.33;2467.27;-1.81
51.35;2466.68;-1.81
51.37;2467.1;-1.81
51.38;2466.72;-1.81
51.4;2466.8;-1.81
51.42;2466.77;-1.81
51.43;2466.24;-1.81
51.45;2466.3;-1.81
51.47;2467.09;-1.81
51.48;2467.3;-1.81
51.5;2466.72;-1.81
51.52;2466.46;-1.81
51.53;2466.12;-1.81
51.55;2466;-1.81
51.57;2466.7;-1.81
51.58;2466.5;-1.81
51.6;2466.27;-1.81
51.62;2466.32;-1.81
51.63;2466.59;-1.81
51.65;2466.05;-1.81
51.67;2465.83;-1.81
51.68;2465.82;-1.81
51.7;2465.34;-1.81
51.72;2464.66;-1.81
51.73;2464.97;-1.81
51.75;2465.66;-1.81
51.77;2466.3;-1.81
51.78;2465.68;-1.81
51.8;2465.29;-1.81
51.82;2464.92;-1.81
51.83;2465.22;-1.81
51.85;2465.34;-1.81
51.87;2465.27;-1.81
51.88;2465.68;-1.81
51.9;2466.75;-1.81
51.92;2466.03;-1.81
51.93;2465.62;-1.81
51.95;2465.52;-1.81
51.97;2465.56;-1.81
51.98;2465.44;-1.81
52;2465.26;-1.81
52.02;2465.05;-1.81
52.03;2465.08;-1.81
52.05;2466.03;-1.81
52.07;2465.2;-1.81
52.08;2464.58;-1.81
52.1;2464.11;-1.81
52.12;2463.78;-1.81
52.13;2463.16;-1.81
52.15;2463.27;-1.81
52.17;2464.39;-1.81
52.18;2464.05;-1.81
52.2;2464.05;-1.81
52.22;2464.24;-1.81
52.23;2463.68;-1.81
52.25;2463.57;-1.81
52.27;2463.98;-1.81
52.28;2464.59;-1.81
52.3;2464.55;-1.81
52.32;2464.29;-1.81
52.33;2464.31;-1.81
52.35;2464.14;-1.81
52.37;2463.8;-1.81
52.38;2463.81;-1.81
52.4;2463.62;-1.81
52.42;2464.08;-1.81
52.43;2464.35;-1.81
52.45;2464.64;-1.81
52.47;2464.46;-1.81
52.48;2464.23;-1.81
52.5;2463.91;-1.81
52.52;2463.99;-1.81
52.53;2463.68;-1.81
52.55;2463.93;-1.81
52.57;2464.8;-1.81
52.58;2465.08;-1.81
52.6;2464.87;-1.81
52.62;2465.2;-1.81
52.63;2464.88;-1.81
52.65;2464.88;-1.81
52.67;2465.59;-1.81
52.68;2464.93;-1.81
52.7;2465.54;-1.81
52.72;2465.85;-1.81
52.73;2465.99;-1.81
52.75;2466.07;-1.81
52.77;2465.53;-1.81
52.78;2465.98;-1.81
52.8;2465.53;-1.81
52.82;2465.02;-1.81
52.83;2465.54;-1.81
52.85;2466.38;-1.81
52.87;2466.53;-1.81
52.88;2466;-1.81
52.9;2465.16;-1.81
52.92;2465.47;-1.81
52.93;2465.22;-1.811
52.95;2465.72;-1.811
52.97;2465.73;-1.81
52.98;2465.95;-1.81
53;2465.96;-1.81
53.02;2465.94;-1.81
53.03;2465.35;-1.81
53.05;2466.02;-1.81
53.07;2465.76;-1.81
53.08;2465.73;-1.81
53.1;2466.12;-1.81
53.12;2466.3;-1.81
53.13;2466.88;-1.81
53.15;2466.42;-1.811
53.17;2466.03;-1.81
53.18;2466.04;-1.811
53.2;2465.52;-1.81
53.22;2465.7;-1.811
53.23;2466.5;-1.811
53.25;2467.06;-1.811
53.27;2467.01;-1.811
53.28;2466.75;-1.811
53.3;2465.97;-1.81
53.32;2465.85;-1.81
53.33;2465.84;-1.81
53.35;2466.26;-1.81
53.37;2466.89;-1.81
53.38;2468.01;-1.81
53.4;2467.83;-1.81
53.42;2467.53;-1.81
53.43;2467.2;-1.81
53.45;2467.29;-1.811
53.47;2466.9;-1.811
53.48;2467.1;-1.811
53.5;2467.87;-1.811
53.52;2467.86;-1.811
53.53;2468.68;-1.811
53.55;2468.34;-1.811
53.57;2468.19;-1.811
53.58;2467.76;-1.811
53.6;2468.21;-1.811
53.62;2468.36;-1.81
53.63;2468.94;-1.81
53.65;2468.63;-1.811
53.67;2469.18;-1.81
53.68;2469.18;-1.81
53.7;2468.7;-1.811
53.72;2468.51;-1.811
53.73;2468.34;-1.811
53.75;2468.71;-1.811
53.77;2468.85;-1.811
53.78;2469.24;-1.811
53.8;2469.95;-1.81
53.82;2469.38;-1.811
53.83;2468.71;-1.811
53.85;2469.25;-1.811
53.87;2469.24;-1.811
53.88;2468.79;-1.811
53.9;2469.08;-1.811
53.92;2469.98;-1.811
53.93;2470.59;-1.811
53.95;2469.98;-1.811
53.97;2470.17;-1.811
53.98;2469.33;-1.811
54;2469.54;-1.811
54.02;2469.48;-1.811
54.03;2469.62;-1.81
54.05;2469.77;-1.81
54.07;2469.82;-1.81
54.08;2470.01;-1.811
54.1;2470.02;-1.811
54.12;2468.54;-1.811
54.13;2468.41;-1.811
54.15;2468.58;-1.811
54.17;2468.77;-1.811
54.18;2469.24;-1.811
54.2;2469.42;-1.811
54.22;2469.15;-1.811
54.23;2468.99;-1.811
54.25;2469.23;-1.811
54.27;2468.4;-1.811
54.28;2468.44;-1.811
54.3;2467.75;-1.811
54.32;2468.21;-1.811
54.33;2468.11;-1.811
54.35;2468.29;-1.811
54.37;2467.91;-1.811
54.38;2467.82;-1.811
54.4;2467.36;-1.811
54.42;2467.18;-1.811
54.43;2467.35;-1.811
54.45;2467.01;-1.811
54.47;2467.17;-1.811
54.48;2467.25;-1.811
54.5;2467.59;-1.811
54.52;2466.81;-1.811
54.53;2466.37;-1.811
54.55;2466;-1.811
54.57;2465.95;-1.811
54.58;2466.71;-1.811
54.6;2466.44;-1.811
54.62;2466.84;-1.811
54.63;2466.07;-1.811
54.65;2466.3;-1.811
54.67;2466.1;-1.811
54.68;2465.88;-1.811
54.7;2465.76;-1.811
54.72;2466.02;-1.811
54.73;2466.56;-1.811
54.75;2466.64;-1.811
54.77;2467.53;-1.811
54.78;2467.65;-1.811
54.8;2466.37;-1.811
54.82;2466.32;-1.811
54.83;2466.44;-1.811
54.85;2466.9;-1.811
54.87;2467.43;-1.811
54.88;2466.92;-1.811
54.9;2466.96;-1.811
54.92;2466.95;-1.811
54.93;2466.51;-1.811
54.95;2466.39;-1.811
54.97;2466.09;-1.811
54.98;2465.4;-1.811
55;2466.43;-1.811
55.02;2466.2;-1.811
55.03;2466.57;-1.811
55.05;2466.52;-1.811
55.07;2466.99;-1.811
55.08;2466.31;-1.811
55.1;2465.78;-1.811
55.12;2466.06;-1.811
55.13;2466.02;-1.811
55.15;2466.33;-1.811
55.17;2466.15;-1.811
55.18;2466.32;-1.811
55.2;2466.2;-1.811
55.22;2466.42;-1.811
55.23;2466.08;-1.811
55.25;2466.03;-1.811
55.27;2465.8;-1.811
55.28;2465.79;-1.811
55.3;2465.58;-1.811
55.32;2465.95;-1.811
55.33;2465.53;-1.811
55.35;2465.07;-1.811
55.37;2465.5;-1.811
55.38;2465.04;-1.811
55.4;2465.88;-1.811
55.42;2465.69;-1.811
55.43;2465.28;-1.811
55.45;2465.35;-1.811
55.47;2465.51;-1.811
55.48;2465.22;-1.811
55.5;2465.3;-1.811
55.52;2464.88;-1.811
55.53;2465.17;-1.811
55.55;2465.65;-1.811
55.57;2466.6;-1.811
55.58;2466.22;-1.811
55.6;2465.8;-1.811
55.62;2465.21;-1.811
55.63;2464.58;-1.811
55.65;2464.72;-1.811
55.67;2465.78;-1.811
55.68;2465.59;-1.81
55.7;2466.07;-1.811
55.72;2466.06;-1.811
55.73;2467.05;-1.811
55.75;2465.84;-1.811
55.77;2465.55;-1.811
55.78;2465.67;-1.811
55.8;2465.68;-1.811
55.82;2466.25;-1.811
55.83;2466.17;-1.811
55.85;2466.73;-1.811
55.87;2467.13;-1.811
55.88;2467.13;-1.811
55.9;2466.97;-1.811
55.92;2466.84;-1.811
55.93;2467.31;-1.811
55.95;2467.57;-1.811
55.97;2468.57;-1.811
55.98;2468.71;-1.811
56;2468.63;-1.811
56.02;2468.16;-1.811
56.03;2468.34;-1.811
56.05;2468.65;-1.811
56.07;2468.6;-1.811
56.08;2469.42;-1.811
56.1;2469.81;-1.811
56.12;2469.87;-1.811
56.13;2470.1;-1.811
56.15;2469.63;-1.811
56.17;2469.93;-1.811
56.18;2469.94;-1.811
56.2;2470.48;-1.811
56.22;2470.58;-1.811
56.23;2470.66;-1.811
56.25;2470.89;-1.811
56.27;2471.13;-1.811
56.28;2471.2;-1.811
56.3;2471.9;-1.811
56.32;2471.47;-1.811
56.33;2472.47;-1.811
56.35;2472.6;-1.811
56.37;2473.24;-1.811
56.38;2473.97;-1.811
56.4;2473.5;-1.811
56.42;2473.22;-1.811
56.43;2472.7;-1.811
56.45;2472.86;-1.811
56.47;2472.91;-1.811
56.48;2472.68;-1.811
56.5;2473.36;-1.811
56.52;2473.77;-1.811
56.53;2474.08;-1.811
56.55;2474.2;-1.811
56.57;2473.68;-1.811
56.58;2473.54;-1.811
56.6;2472.3;-1.811
56.62;2473.14;-1.811
56.63;2473.33;-1.811
56.65;2473.81;-1.811
56.67;2473.82;-1.811
56.68;2474.23;-1.811
56.7;2474.5;-1.811
56.72;2474.34;-1.811
56.73;2473.64;-1.811
56.75;2473.92;-1.811
56.77;2474.46;-1.811
56.78;2475.64;-1.811
56.8;2475.26;-1.811
56.82;2475.52;-1.811
56.83;2475.29;-1.811
56.85;2475.1;-1.811
56.87;2475.8;-1.811
56.88;2475.25;-1.811
56.9;2475.99;-1.811
56.92;2475.95;-1.811
56.93;2475.92;-1.811
56.95;2475.77;-1.811
56.97;2475.41;-1.811
56.98;2475.09;-1.811
57;2474.88;-1.811
57.02;2475.39;-1.811
57.03;2475.3;-1.811
57.05;2475.47;-1.811
57.07;2476.3;-1.811
57.08;2475.97;-1.811
57.1;2475.82;-1.811
57.12;2475.8;-1.811
57.13;2475.35;-1.811
57.15;2475.38;-1.811
57.17;2475.13;-1.811
57.18;2475.96;-1.811
57.2;2475.97;-1.811
57.22;2476.42;-1.811
57.23;2475.99;-1.811
57.25;2475.67;-1.811
57.27;2475.4;-1.811
57.28;2475.81;-1.811
57.3;2475.53;-1.811
57.32;2475.71;-1.811
57.33;2475.4;-1.811
57.35;2475.24;-1.811
57.37;2475.27;-1.811
57.38;2475.36;-1.811
57.4;2475.41;-1.811
57.42;2474.64;-1.811
57.43;2475.47;-1.811
57.45;2475.58;-1.811
57.47;2475.24;-1.811
57.48;2474.89;-1.811
57.5;2475.2;-1.811
57.52;2475.17;-1.811
57.53;2474.62;-1.811
57.55;2474.44;-1.811
57.57;2474.96;-1.811
57.58;2475.46;-1.811
57.6;2475.99;-1.811
57.62;2475.95;-1.811
57.63;2476.12;-1.811
57.65;2475.91;-1.811
57.67;2475.16;-1.811
57.68;2475.24;-1.811
57.7;2475.55;-1.811
57.72;2475.37;-1.811
57.73;2475.53;-1.811
57.75;2475.31;-1.811
57.77;2475.93;-1.811
57.78;2474.75;-1.811
57.8;2474.66;-1.811
57.82;2474.8;-1.811
57.83;2475.13;-1.811
57.85;2475.14;-1.811
57.87;2475.32;-1.811
57.88;2475.04;-1.811
57.9;2474.72;-1.811
57.92;2474.45;-1.811
57.93;2474.5;-1.811
57.95;2474.61;-1.811
57.97;2474.59;-1.811
57.98;2474.48;-1.811
58;2475.36;-1.811
58.02;2475.18;-1.811
58.03;2475.11;-1.811
58.05;2474.63;-1.811
58.07;2474.68;-1.811
58.08;2475.08;-1.811
58.1;2475.24;-1.811
58.12;2475.33;-1.811
58.13;2474.91;-1.811
58.15;2475.14;-1.811
58.17;2475.31;-1.811
58.18;2475.28;-1.811
58.2;2474.78;-1.811
58.22;2474.32;-1.811
58.23;2474.29;-1.811
58.25;2474.05;-1.811
58.27;2475.27;-1.811
58.28;2474.7;-1.811
58.3;2475.39;-1.811
58.32;2475.66;-1.811
58.33;2475.82;-1.811
58.35;2475.48;-1.811
58.37;2475.86;-1.811
58.38;2475.49;-1.811
58.4;2476.91;-1.811
58.42;2477.13;-1.811
58.43;2476.95;-1.811
58.45;2476.92;-1.811
58.47;2476.82;-1.811
58.48;2476.84;-1.811
58.5;2477.63;-1.811
58.52;2477.74;-1.811
58.53;2477.26;-1.811
58.55;2476.92;-1.811
58.57;2476.81;-1.811
58.58;2476.96;-1.811
58.6;2477.12;-1.811
58.62;2475.67;-1.811
58.63;2475.3;-1.811
58.65;2475.73;-1.811
58.67;2475.78;-1.811
58.68;2476.24;-1.811
58.7;2476.34;-1.811
58.72;2476.16;-1.811
58.73;2476.41;-1.811
58.75;2476.48;-1.811
58.77;2476.69;-1.811
58.78;2476.91;-1.811
58.8;2476.77;-1.811
58.82;2477.1;-1.811
58.83;2477.31;-1.811
58.85;2477.17;-1.811
58.87;2477.37;-1.811
58.88;2477.45;-1.811
58.9;2477.84;-1.811
58.92;2477.84;-1.811
58.93;2478.41;-1.811
58.95;2478.4;-1.811
58.97;2478.77;-1.811
58.98;2478.19;-1.811
59;2478.63;-1.811
59.02;2478.12;-1.811
59.03;2477.79;-1.811
59.05;2477.56;-1.811
59.07;2478.17;-1.811
59.08;2478.33;-1.811
59.1;2477.93;-1.811
59.12;2478.46;-1.811
59.13;2478.38;-1.811
59.15;2478.49;-1.811
59.17;2478.41;-1.811
59.18;2478.52;-1.811
59.2;2477.92;-1.811
59.22;2477.98;-1.811
59.23;2478.15;-1.811
59.25;2478.75;-1.811
59.27;2478.13;-1.811
59.28;2478.59;-1.811
59.3;2478.62;-1.811
59.32;2478.53;-1.811
59.33;2477.95;-1.811
59.35;2477.56;-1.811
59.37;2477.81;-1.811
59.38;2478.03;-1.812
59.4;2478.69;-1.812
59.42;2478.53;-1.812
59.43;2477.95;-1.812
59.45;2477.86;-1.811
59.47;2477.69;-1.811
59.48;2478.37;-1.811
59.5;2478.43;-1.811
59.52;2477.39;-1.811
59.53;2477.95;-1.811
59.55;2478.07;-1.811
59.57;2477.96;-1.811
59.58;2478.82;-1.811
59.6;2478.57;-1.811
59.62;2478.65;-1.811
59.63;2478.26;-1.811
59.65;2478.91;-1.811
59.67;2478.85;-1.811
59.68;2478.57;-1.811
59.7;2478.26;-1.811
59.72;2478.25;-1.811
59.73;2478.16;-1.811
59.75;2478.28;-1.812
59.77;2478.86;-1.812
59.78;2478.59;-1.812
59.8;2478.06;-1.812
59.82;2478.94;-1.812
59.83;2478.16;-1.812
59.85;2477.64;-1.812
59.87;2477.38;-1.811
59.88;2478.01;-1.811
59.9;2477.94;-1.811
59.92;2478.11;-1.811
59.93;2477.68;-1.811
59.95;2477.39;-1.811
59.97;2477.59;-1.811
59.98;2477.37;-1.811
60;2477.35;-1.811
60.02;2477.87;-1.811
60.03;2477.75;-1.811
60.05;2478.19;-1.812
60.07;2478.53;-1.812
60.08;2478.29;-1.812
60.1;2478.05;-1.812
60.12;2478.13;-1.812
60.13;2477.57;-1.812
60.15;2477.53;-1.812
60.17;2477.15;-1.811
60.18;2477.52;-1.812
60.2;2477.83;-1.812
60.22;2477.17;-1.812
60.23;2477.76;-1.811
60.25;2477.06;-1.812
60.27;2477.04;-1.811
60.28;2476.88;-1.811
60.3;2477.27;-1.811
60.32;2476.9;-1.811
60.33;2477.77;-1.811
60.35;2476.79;-1.811
60.37;2476.61;-1.811
60.38;2476.89;-1.811
60.4;2476.98;-1.811
60.42;2476.98;-1.812
60.43;2476.67;-1.812
60.45;2477.25;-1.812
60.47;2477.08;-1.812
60.48;2477.35;-1.812
60.5;2477.33;-1.812
60.52;2476.59;-1.812
60.53;2476.88;-1.812
60.55;2477.08;-1.812
60.57;2477.26;-1.812
60.58;2476.93;-1.811
60.6;2476.95;-1.811
60.62;2476.56;-1.811
60.63;2476.88;-1.811
60.65;2475.72;-1.811
60.67;2475.7;-1.811
60.68;2476.49;-1.811
60.7;2477.01;-1.812
60.72;2476.64;-1.812
60.73;2476.83;-1.812
60.75;2476.52;-1.812
60.77;2476.45;-1.812
60.78;2476.31;-1.812
60.8;2476.2;-1.812
60.82;2476.56;-1.812
60.83;2475.62;-1.812
60.85;2476.02;-1.812
60.87;2475.89;-1.812
60.88;2475.91;-1.812
60.9;2475.86;-1.812
60.92;2475.71;-1.812
60.93;2475.69;-1.812
60.95;2475.84;-1.812
60.97;2476.28;-1.812
60.98;2476.58;-1.812
61;2475.9;-1.811
61.02;2476.02;-1.811
61.03;2475.74;-1.811
61.05;2475.99;-1.811
61.07;2475.66;-1.812
61.08;2475.91;-1.812
61.1;2475.78;-1.812
61.12;2476.09;-1.812
61.13;2475.99;-1.812
61.15;2475.54;-1.812
61.17;2475.13;-1.812
61.18;2475.65;-1.812
61.2;2475.97;-1.812
61.22;2476.22;-1.812
61.23;2475.79;-1.812
61.25;2475.56;-1.812
61.27;2475.63;-1.812
61.28;2476.33;-1.812
61.3;2476.53;-1.812
61.32;2476.09;-1.812
61.33;2476.11;-1.812
61.35;2476.39;-1.812
61.37;2475.85;-1.812
61.38;2476.51;-1.812
61.4;2475.81;-1.812
61.42;2476.15;-1.812
61.43;2476.44;-1.812
61.45;2476.11;-1.812
61.47;2475.58;-1.812
61.48;2475.53;-1.812
61.5;2475.96;-1.812
61.52;2476.11;-1.812
61.53;2475.82;-1.812
61.55;2475.57;-1.812
61.57;2476.26;-1.812
61.58;2475.99;-1.812
61.6;2475.49;-1.812
61.62;2475.98;-1.812
61.63;2475.85;-1.812
61.65;2475.71;-1.812
61.67;2475.86;-1.812
61.68;2476.37;-1.812
61.7;2475.89;-1.811
61.72;2476.36;-1.812
61.73;2476.65;-1.811
61.75;2476.88;-1.812
61.77;2476.5;-1.812
61.78;2476.73;-1.812
61.8;2476.67;-1.812
61.82;2476.47;-1.812
61.83;2476.66;-1.812
61.85;2476.14;-1.812
61.87;2476.52;-1.812
61.88;2476.42;-1.812
61.9;2476.86;-1.812
61.92;2476.93;-1.812
61.93;2476.24;-1.812
61.95;2476.18;-1.812
61.97;2476.58;-1.812
61.98;2476.85;-1.812
62;2476.78;-1.812
62.02;2477.11;-1.812
62.03;2477.18;-1.812
62.05;2477.14;-1.812
62.07;2477.03;-1.812
62.08;2477.42;-1.812
62.1;2477.41;-1.812
62.12;2477.33;-1.812
62.13;2477.27;-1.812
62.15;2477.12;-1.812
62.17;2476.42;-1.812
62.18;2477.08;-1.812
62.2;2477.58;-1.812
62.22;2477.19;-1.812
62.23;2477.31;-1.812
62.25;2477.18;-1.812
62.27;2477.66;-1.812
62.28;2477.05;-1.812
62.3;2476.67;-1.812
62.32;2476.19;-1.812
62.33;2476.29;-1.812
62.35;2476.46;-1.812
62.37;2476.74;-1.812
62.38;2476.29;-1.812
62.4;2476.44;-1.812
62.42;2476.78;-1.812
62.43;2476.54;-1.812
62.45;2476.47;-1.812
62.47;2476.21;-1.812
62.48;2476.5;-1.812
62.5;2477.04;-1.812
62.52;2477.55;-1.812
62.53;2476.8;-1.812
62.55;2477.22;-1.812
62.57;2476.84;-1.812
62.58;2477.38;-1.812
62.6;2477.11;-1.812
62.62;2477.41;-1.812
62.63;2477.31;-1.812
62.65;2476.92;-1.812
62.67;2477.39;-1.812
62.68;2477.57;-1.812
62.7;2477.38;-1.812
62.72;2477.21;-1.812
62.73;2477.42;-1.812
62.75;2477.95;-1.812
62.77;2477.99;-1.811
62.78;2477.63;-1.811
62.8;2477.41;-1.811
62.82;2477.53;-1.811
62.83;2477.55;-1.812
62.85;2478.13;-1.811
62.87;2477.97;-1.812
62.88;2477.66;-1.812
62.9;2477.65;-1.812
62.92;2477.97;-1.812
62.93;2478.29;-1.812
62.95;2478.32;-1.812
62.97;2478.31;-1.812
62.98;2478.18;-1.812
63;2478.57;-1.812
63.02;2477.8;-1.812
63.03;2477.98;-1.812
63.05;2478.24;-1.812
63.07;2478.61;-1.812
63.08;2478.87;-1.812
63.1;2478.68;-1.812
63.12;2478.16;-1.812
63.13;2478.02;-1.812
63.15;2478.36;-1.812
63.17;2478.49;-1.812
63.18;2479.34;-1.812
63.2;2480.23;-1.812
63.22;2480.6;-1.812
63.23;2480.61;-1.812
63.25;2480.67;-1.812
63.27;2481.23;-1.812
63.28;2481.86;-1.812
63.3;2482.56;-1.812
63.32;2483.2;-1.812
63.33;2483.88;-1.812
63.35;2484.23;-1.812
63.37;2484.48;-1.812
63.38;2485.49;-1.812
63.4;2485.98;-1.812
63.42;2486.85;-1.812
63.43;2487.4;-1.812
63.45;2487.71;-1.812
63.47;2487.61;-1.812
63.48;2488.59;-1.812
63.5;2489.1;-1.812
63.52;2490.23;-1.812
63.53;2490.51;-1.812
63.55;2491.22;-1.812
63.57;2492.03;-1.812
63.58;2492.84;-1.812
63.6;2492.41;-1.812
63.62;2493.35;-1.812
63.63;2494.21;-1.812
63.65;2494.33;-1.812
63.67;2494.84;-1.812
63.68;2495.37;-1.812
63.7;2495.8;-1.812
63.72;2497.02;-1.812
63.73;2497.13;-1.812
63.75;2497.34;-1.812
63.77;2498.3;-1.812
63.78;2498.34;-1.812
63.8;2499.04;-1.812
63.82;2499.27;-1.812
63.83;2499.88;-1.812
63.85;2499.82;-1.812
63.87;2500.1;-1.812
63.88;2500.3;-1.812
63.9;2500.75;-1.812
63.92;2501.38;-1.812
63.93;2501.17;-1.812
63.95;2501.63;-1.812
63.97;2501.73;-1.812
63.98;2501.22;-1.812
64;2501.87;-1.812
64.02;2501.89;-1.812
64.03;2502.7;-1.812
64.05;2503.18;-1.812
64.07;2503.87;-1.812
64.08;2503.77;-1.812
64.1;2503.61;-1.812
64.12;2503.83;-1.812
64.13;2504.09;-1.812
64.15;2504.64;-1.812
64.17;2505.15;-1.812
64.18;2505.44;-1.812
64.2;2505.12;-1.812
64.22;2506.13;-1.812
64.23;2506.36;-1.812
64.25;2505.9;-1.812
64.27;2506.26;-1.812
64.28;2505.81;-1.812
64.3;2506.16;-1.812
64.32;2506.68;-1.812
64.33;2506.43;-1.812
64.35;2507.2;-1.812
64.37;2506.74;-1.812
64.38;2507.59;-1.812
64.4;2507.55;-1.812
64.42;2507.22;-1.812
64.43;2507.18;-1.812
64.45;2507.88;-1.812
64.47;2507.97;-1.812
64.48;2508.48;-1.812
64.5;2508.13;-1.812
64.52;2507.92;-1.812
64.53;2508.16;-1.812
64.55;2508.12;-1.812
64.57;2507.67;-1.812
64.58;2508.2;-1.812
64.6;2509.01;-1.812
64.62;2509.15;-1.812
64.63;2508.78;-1.812
64.65;2508.54;-1.812
64.67;2508.1;-1.812
64.68;2507.89;-1.812
64.7;2508.39;-1.812
64.72;2508.15;-1.812
64.73;2508.16;-1.812
64.75;2507.42;-1.812
64.77;2507.94;-1.812
64.78;2507.4;-1.812
64.8;2507.71;-1.812
64.82;2508.31;-1.812
64.83;2507.4;-1.812
64.85;2507.45;-1.812
64.87;2508.02;-1.812
64.88;2508.16;-1.812
64.9;2508.08;-1.812
64.92;2507.44;-1.812
64.93;2507.36;-1.812
64.95;2507.42;-1.812
64.97;2507.4;-1.812
64.98;2507.07;-1.812
65;2507.57;-1.812
65.02;2507.7;-1.812
65.03;2507.72;-1.812
65.05;2507.9;-1.812
65.07;2507.47;-1.812
65.08;2507.09;-1.812
65.1;2507.4;-1.812
65.12;2507.7;-1.812
65.13;2508.31;-1.812
65.15;2507.42;-1.812
65.17;2506.68;-1.812
65.18;2506.75;-1.812
65.2;2506.79;-1.812
65.22;2506.38;-1.812
65.23;2506.5;-1.812
65.25;2506.4;-1.812
65.27;2506.96;-1.812
65.28;2506.6;-1.812
65.3;2506.9;-1.812
65.32;2506.52;-1.812
65.33;2506.47;-1.812
65.35;2506.15;-1.812
65.37;2506.6;-1.812
65.38;2506.85;-1.812
65.4;2506.89;-1.812
65.42;2507.29;-1.812
65.43;2507.11;-1.812
65.45;2507.15;-1.812
65.47;2506.47;-1.812
65.48;2506.17;-1.812
65.5;2506.42;-1.812
65.52;2506.74;-1.812
65.53;2507.17;-1.812
65.55;2506.84;-1.812
65.57;2506.3;-1.812
65.58;2506.54;-1.812
65.6;2506.83;-1.812
65.62;2506.46;-1.812
65.63;2506.25;-1.812
65.65;2506.19;-1.812
65.67;2506.6;-1.812
65.68;2506.57;-1.812
65.7;2506.7;-1.812
65.72;2506.19;-1.812
65.73;2506.15;-1.812
65.75;2505.96;-1.812
65.77;2506.35;-1.812
65.78;2505.82;-1.812
65.8;2506.57;-1.812
65.82;2506.93;-1.812
65.83;2506.93;-1.812
65.85;2506.17;-1.812
65.87;2505.96;-1.812
65.88;2505.96;-1.812
65.9;2505.48;-1.812
65.92;2506.7;-1.812
65.93;2506.38;-1.812
65.95;2506.02;-1.812
65.97;2506.15;-1.812
65.98;2505.97;-1.812
66;2505.32;-1.812
66.02;2505.9;-1.812
66.03;2505.96;-1.812
66.05;2506.16;-1.812
66.07;2505.52;-1.812
66.08;2505.98;-1.812
66.1;2505.68;-1.812
66.12;2506.02;-1.812
66.13;2505.63;-1.812
66.15;2505.53;-1.812
66.17;2505.42;-1.812
66.18;2505.52;-1.812
66.2;2505.61;-1.812
66.22;2505.26;-1.812
66.23;2505.55;-1.812
66.25;2505.22;-1.812
66.27;2504.6;-1.812
66.28;2505.07;-1.812
66.3;2504.81;-1.812
66.32;2504.74;-1.812
66.33;2504.47;-1.812
66.35;2504.58;-1.812
66.37;2504.16;-1.812
66.38;2503.62;-1.812
66.4;2503.28;-1.812
66.42;2503.62;-1.812
66.43;2503.08;-1.812
66.45;2503.34;-1.812
66.47;2502.93;-1.812
66.48;2503;-1.812
66.5;2503.42;-1.812
66.52;2503.87;-1.812
66.53;2503.53;-1.812
66.55;2502.92;-1.812
66.57;2502.89;-1.812
66.58;2503.51;-1.812
66.6;2502.89;-1.812
66.62;2502.92;-1.812
66.63;2502.42;-1.812
66.65;2502.86;-1.812
66.67;2502.01;-1.812
66.68;2501.84;-1.812
66.7;2501.74;-1.812
66.72;2501.76;-1.812
66.73;2501.96;-1.812
66.75;2501.79;-1.812
66.77;2501.87;-1.812
66.78;2502.04;-1.812
66.8;2501.09;-1.812
66.82;2500.73;-1.812
66.83;2500.94;-1.812
66.85;2500.7;-1.812
66.87;2500.79;-1.812
66.88;2500.72;-1.812
66.9;2500.88;-1.812
66.92;2500.83;-1.812
66.93;2500.99;-1.812
66.95;2500.71;-1.812
66.97;2500.08;-1.812
66.98;2500.44;-1.812
67;2500.45;-1.812
67.02;2500.76;-1.812
67.03;2500.11;-1.812
67.05;2500.17;-1.812
67.07;2500.81;-1.812
67.08;2500.8;-1.812
67.1;2500.9;-1.812
67.12;2500.67;-1.812
67.13;2500.81;-1.812
67.15;2500.37;-1.812
67.17;2500.13;-1.812
67.18;2499.92;-1.812
67.2;2499.97;-1.812
67.22;2499.77;-1.812
67.23;2499.62;-1.812
67.25;2499.21;-1.812
67.27;2499.08;-1.812
67.28;2499.93;-1.812
67.3;2499.61;-1.812
67.32;2499.71;-1.812
67.33;2500.17;-1.812
67.35;2499.84;-1.812
67.37;2499.21;-1.812
67.38;2498.47;-1.812
67.4;2498.9;-1.812
67.42;2499.51;-1.812
67.43;2499.3;-1.812
67.45;2499.2;-1.812
67.47;2499.14;-1.812
67.48;2499.64;-1.812
67.5;2499.38;-1.812
67.52;2499.43;-1.812
67.53;2499.06;-1.812
67.55;2499.39;-1.812
67.57;2499.14;-1.812
67.58;2499.63;-1.812
67.6;2499.14;-1.812
67.62;2498.49;-1.812
67.63;2498.5;-1.812
67.65;2498.68;-1.812
67.67;2498.23;-1.812
67.68;2497.67;-1.812
67.7;2498.21;-1.812
67.72;2498.86;-1.812
67.73;2498.87;-1.812
67.75;2498.2;-1.812
67.77;2497.64;-1.812
67.78;2497.53;-1.812
67.8;2497.43;-1.812
67.82;2498.28;-1.812
67.83;2498.81;-1.812
67.85;2498.93;-1.812
67.87;2498.68;-1.812
67.88;2498.76;-1.812
67.9;2498.09;-1.812
67.92;2498.28;-1.812
67.93;2498.23;-1.812
67.95;2497.68;-1.812
67.97;2497.61;-1.812
67.98;2497.65;-1.812
68;2497.52;-1.812
68.02;2497.44;-1.812
68.03;2497.75;-1.812
68.05;2497.39;-1.812
68.07;2497.28;-1.812
68.08;2497.18;-1.812
68.1;2497.41;-1.812
68.12;2497.3;-1.812
68.13;2497.31;-1.812
68.15;2497.7;-1.812
68.17;2497.1;-1.812
68.18;2497.03;-1.812
68.2;2496.81;-1.812
68.22;2496.71;-1.812
68.23;2497.01;-1.812
68.25;2497.31;-1.812
68.27;2497.29;-1.812
68.28;2497.64;-1.812
68.3;2497.34;-1.812
68.32;2496.99;-1.812
68.33;2496.37;-1.812
68.35;2496.3;-1.812
68.37;2496.24;-1.812
68.38;2496.81;-1.812
68.4;2497.61;-1.812
68.42;2497.16;-1.812
68.43;2496.83;-1.812
68.45;2496.77;-1.812
68.47;2496.17;-1.812
68.48;2495.77;-1.812
68.5;2496.13;-1.812
68.52;2496.35;-1.812
68.53;2496.58;-1.812
68.55;2496.58;-1.812
68.57;2496.76;-1.812
68.58;2496.96;-1.812
68.6;2496.74;-1.812
68.62;2497.32;-1.812
68.63;2497.25;-1.812
68.65;2497.54;-1.812
68.67;2497.62;-1.812
68.68;2497.8;-1.812
68.7;2497.49;-1.812
68.72;2497.64;-1.812
68.73;2497.85;-1.812
68.75;2497.56;-1.812
68.77;2497.65;-1.812
68.78;2498.2;-1.812
68.8;2498.24;-1.812
68.82;2497.98;-1.812
68.83;2497.29;-1.812
68.85;2497.16;-1.812
68.87;2497.15;-1.812
68.88;2496.83;-1.812
68.9;2497.09;-1.812
68.92;2497.02;-1.812
68.93;2497.03;-1.812
68.95;2498;-1.812
68.97;2497.21;-1.812
68.98;2496.93;-1.812
69;2496.92;-1.812
69.02;2496.87;-1.812
69.03;2496.87;-1.812
69.05;2497.07;-1.812
69.07;2497.29;-1.812
69.08;2497.23;-1.812
69.1;2497.15;-1.812
69.12;2497.57;-1.812
69.13;2497.87;-1.812
69.15;2497.42;-1.812
69.17;2497.42;-1.812
69.18;2497.71;-1.812
69.2;2498.28;-1.812
69.22;2498.61;-1.812
69.23;2498.82;-1.812
69.25;2498.79;-1.812
69.27;2498.68;-1.812
69.28;2497.62;-1.812
69.3;2498.32;-1.812
69.32;2498.35;-1.813
69.33;2499.36;-1.813
69.35;2499.67;-1.813
69.37;2499.92;-1.813
69.38;2499.73;-1.812
69.4;2500.25;-1.812
69.42;2499.41;-1.812
69.43;2499.37;-1.812
69.45;2499.9;-1.812
69.47;2500.33;-1.812
69.48;2499.78;-1.812
69.5;2500.36;-1.812
69.52;2499.52;-1.812
69.53;2499.57;-1.812
69.55;2499.33;-1.812
69.57;2499.96;-1.812
69.58;2499.92;-1.812
69.6;2500.19;-1.812
69.62;2499.92;-1.812
69.63;2499.44;-1.812
69.65;2498.98;-1.812
69.67;2498.77;-1.812
69.68;2499.56;-1.812
69.7;2499.43;-1.812
69.72;2499.51;-1.812
69.73;2499.51;-1.812
69.75;2499.99;-1.813
69.77;2499.61;-1.812
69.78;2499.41;-1.813
69.8;2499.67;-1.813
69.82;2499.28;-1.812
69.83;2499.49;-1.812
69.85;2499.67;-1.812
69.87;2500.76;-1.812
69.88;2500.91;-1.812
69.9;2500.65;-1.812
69.92;2501.5;-1.812
69.93;2500.84;-1.812
69.95;2500.92;-1.812
69.97;2500.83;-1.812
69.98;2500.45;-1.812
70;2500.98;-1.812
70.02;2501.7;-1.812
70.03;2502.18;-1.812
70.05;2501.89;-1.812
70.07;2502.07;-1.812
70.08;2501.99;-1.812
70.1;2502.02;-1.812
70.12;2502.01;-1.812
70.13;2501.88;-1.812
70.15;2502.18;-1.813
70.17;2502.21;-1.812
70.18;2502.04;-1.812
70.2;2502.05;-1.813
70.22;2502.1;-1.812
70.23;2502.43;-1.812
70.25;2502.43;-1.812
70.27;2502.93;-1.812
70.28;2503.15;-1.812
70.3;2503.02;-1.812
70.32;2503.25;-1.812
70.33;2503.03;-1.812
70.35;2502.8;-1.812
70.37;2502.89;-1.812
70.38;2503.03;-1.812
70.4;2502.71;-1.812
70.42;2503.52;-1.813
70.43;2503.77;-1.813
70.45;2503.15;-1.813
70.47;2502.58;-1.813
70.48;2502.43;-1.813
70.5;2502.43;-1.813
70.52;2502.85;-1.812
70.53;2503.25;-1.812
70.55;2503;-1.812
70.57;2503.37;-1.812
70.58;2503.91;-1.812
70.6;2503.43;-1.812
70.62;2503.35;-1.812
70.63;2503.17;-1.812
70.65;2503.35;-1.812
70.67;2503.86;-1.812
70.68;2504.35;-1.812
70.7;2504.1;-1.812
70.72;2504.44;-1.812
70.73;2505.02;-1.812
70.75;2504.57;-1.812
70.77;2503.78;-1.812
70.78;2504.32;-1.812
70.8;2503.9;-1.813
70.82;2504.34;-1.813
70.83;2504.55;-1.813
70.85;2504.59;-1.813
70.87;2504.54;-1.813
70.88;2504.24;-1.813
70.9;2504.15;-1.813
70.92;2504.3;-1.813
70.93;2504;-1.813
70.95;2503.98;-1.812
70.97;2504.55;-1.813
70.98;2505.37;-1.812
71;2504.9;-1.812
71.02;2504.92;-1.812
71.03;2504.99;-1.812
71.05;2504.77;-1.812
71.07;2504.33;-1.812
71.08;2504.92;-1.813
71.1;2505.19;-1.813
71.12;2505.59;-1.813
71.13;2505.36;-1.813
71.15;2505.22;-1.813
71.17;2505.44;-1.813
71.18;2505.11;-1.813
71.2;2505.23;-1.813
71.22;2505.91;-1.813
71.23;2506.16;-1.813
71.25;2506.44;-1.813
71.27;2505.98;-1.813
71.28;2506.19;-1.813
71.3;2505.81;-1.813
71.32;2505.78;-1.813
71.33;2505.93;-1.813
71.35;2505.8;-1.813
71.37;2506.32;-1.812
71.38;2506.03;-1.813
71.4;2507.07;-1.812
71.42;2506.54;-1.812
71.43;2506.77;-1.812
71.45;2506.29;-1.812
71.47;2506.33;-1.813
71.48;2505.75;-1.812
71.5;2507.41;-1.813
71.52;2507.63;-1.813
71.53;2507.29;-1.813
71.55;2507.07;-1.813
71.57;2507.05;-1.813
71.58;2507.37;-1.813
71.6;2506.76;-1.813
71.62;2506.48;-1.813
71.63;2506.84;-1.813
71.65;2507.12;-1.813
71.67;2507.8;-1.813
71.68;2507.27;-1.813
71.7;2506.91;-1.813
71.72;2506.63;-1.813
71.73;2507.21;-1.813
71.75;2507.4;-1.812
71.77;2507.36;-1.813
71.78;2507.9;-1.813
71.8;2507.57;-1.813
71.82;2507.53;-1.813
71.83;2507.49;-1.813
71.85;2507.46;-1.813
71.87;2507.47;-1.813
71.88;2507.58;-1.813
71.9;2508.16;-1.813
71.92;2508.66;-1.813
71.93;2508.86;-1.813
71.95;2508.34;-1.813
71.97;2508.56;-1.813
71.98;2508.6;-1.813
72;2508.23;-1.813
72.02;2508.11;-1.813
72.03;2508.11;-1.813
72.05;2508.42;-1.813
72.07;2508.43;-1.813
72.08;2508.01;-1.812
72.1;2507.89;-1.812
72.12;2507.17;-1.812
72.13;2506.86;-1.813
72.15;2507.41;-1.813
72.17;2507.22;-1.813
72.18;2507.81;-1.813
72.2;2508.47;-1.813
72.22;2508.53;-1.813
72.23;2507.92;-1.813
72.25;2507.68;-1.813
72.27;2507.25;-1.813
72.28;2506.59;-1.813
72.3;2507.25;-1.813
72.32;2508.03;-1.813
72.33;2508.37;-1.813
72.35;2508.04;-1.813
72.37;2507.65;-1.813
72.38;2506.72;-1.813
72.4;2506.67;-1.813
72.42;2507.07;-1.813
72.43;2507.2;-1.813
72.45;2507.21;-1.813
72.47;2507.5;-1.813
72.48;2507.4;-1.813
72.5;2506.89;-1.813
72.52;2506.88;-1.813
72.53;2506.99;-1.812
72.55;2506.6;-1.813
72.57;2506.93;-1.813
72.58;2506.76;-1.813
72.6;2506.88;-1.813
72.62;2507.39;-1.813
72.63;2506.97;-1.813
72.65;2506.86;-1.813
72.67;2506.74;-1.813
72.68;2506.35;-1.813
72.7;2506.75;-1.813
72.72;2507.02;-1.813
72.73;2507.26;-1.813
72.75;2507.32;-1.813
72.77;2506.92;-1.813
72.78;2506.35;-1.813
72.8;2506.33;-1.813
72.82;2506.19;-1.813
72.83;2506.4;-1.813
72.85;2506.07;-1.813
72.87;2507.02;-1.813
72.88;2506.6;-1.813
72.9;2506.68;-1.813
72.92;2506.03;-1.813
72.93;2505.96;-1.813
72.95;2505.86;-1.813
72.97;2505.52;-1.813
72.98;2505.29;-1.813
73;2505.17;-1.813
73.02;2505.38;-1.813
73.03;2505.3;-1.813
73.05;2505.77;-1.813
73.07;2505.13;-1.813
73.08;2504.83;-1.813
73.1;2505.14;-1.813
73.12;2505.33;-1.813
73.13;2505.24;-1.813
73.15;2504.96;-1.813
73.17;2505.84;-1.813
73.18;2504.9;-1.813
73.2;2504.44;-1.813
73.22;2504.31;-1.813
73.23;2504.28;-1.813
73.25;2504.49;-1.813
73.27;2504.41;-1.813
73.28;2504.99;-1.813
73.3;2505.02;-1.813
73.32;2504.16;-1.813
73.33;2504.1;-1.813
73.35;2503.27;-1.813
73.37;2503.14;-1.813
73.38;2504.09;-1.813
73.4;2503.64;-1.813
73.42;2503.9;-1.813
73.43;2503.59;-1.813
73.45;2503.23;-1.813
73.47;2504.09;-1.813
73.48;2503.64;-1.813
73.5;2503.64;-1.813
73.52;2503.56;-1.813
73.53;2503.85;-1.813
73.55;2503.85;-1.813
73.57;2503.43;-1.813
73.58;2503.47;-1.813
73.6;2503.21;-1.813
73.62;2503.11;-1.813
73.63;2503.2;-1.813
73.65;2503.56;-1.813
73.67;2503.61;-1.813
73.68;2502.94;-1.813
73.7;2503.18;-1.813
73.72;2502.85;-1.813
73.73;2503.03;-1.813
73.75;2502.81;-1.813
73.77;2502.14;-1.813
73.78;2502.19;-1.813
73.8;2502.31;-1.813
73.82;2502.87;-1.813
73.83;2502.84;-1.813
73.85;2503.1;-1.813
73.87;2502.72;-1.813
73.88;2502.49;-1.813
73.9;2501.84;-1.813
73.92;2502.19;-1.813
73.93;2502.09;-1.813
73.95;2502.71;-1.813
73.97;2502.67;-1.813
73.98;2502.57;-1.813
74;2502.6;-1.813
74.02;2502.45;-1.813
74.03;2501.79;-1.813
74.05;2502.04;-1.813
74.07;2502.37;-1.813
74.08;2502.14;-1.813
74.1;2502.22;-1.813
74.12;2502.33;-1.813
74.13;2502.31;-1.813
74.15;2501.34;-1.813
74.17;2501.6;-1.813
74.18;2501.14;-1.813
74.2;2501.44;-1.813
74.22;2501.9;-1.813
74.23;2502.2;-1.813
74.25;2502.33;-1.813
74.27;2501.96;-1.813
74.28;2501.37;-1.813
74.3;2500.96;-1.813
74.32;2501.17;-1.813
74.33;2501.37;-1.813
74.35;2501.9;-1.813
74.37;2502.29;-1.813
74.38;2501.91;-1.813
74.4;2501.7;-1.813
74.42;2501.35;-1.813
74.43;2501.37;-1.813
74.45;2500.77;-1.813
74.47;2500.98;-1.813
74.48;2500.5;-1.813
74.5;2500.49;-1.813
74.52;2500.81;-1.813
74.53;2500.54;-1.813
74.55;2500.6;-1.813
74.57;2499.85;-1.813
74.58;2499.87;-1.813
74.6;2499.79;-1.813
74.62;2500.2;-1.813
74.63;2500.21;-1.813
74.65;2499.94;-1.813
74.67;2499.7;-1.813
74.68;2500.36;-1.813
74.7;2500.05;-1.813
74.72;2499.76;-1.813
74.73;2499.76;-1.813
74.75;2500.22;-1.813
74.77;2501.12;-1.813
74.78;2501.14;-1.813
74.8;2501.08;-1.813
74.82;2501.23;-1.813
74.83;2500.81;-1.813
74.85;2500.93;-1.813
74.87;2500.64;-1.813
74.88;2500.39;-1.813
74.9;2501.61;-1.813
74.92;2501.63;-1.813
74.93;2501.69;-1.813
74.95;2501.68;-1.813
74.97;2501.27;-1.813
74.98;2500.26;-1.813
75;2500.38;-1.813
75.02;2500.7;-1.813
75.03;2501.31;-1.813
75.05;2502.84;-1.813
75.07;2503.06;-1.813
75.08;2502.86;-1.813
75.1;2502.16;-1.813
75.12;2501.94;-1.813
75.13;2502.03;-1.813
75.15;2502.97;-1.813
75.17;2503.14;-1.813
75.18;2504.4;-1.813
75.2;2503.88;-1.813
75.22;2503.72;-1.813
75.23;2504.76;-1.813
75.25;2504.47;-1.813
75.27;2504.32;-1.813
75.28;2505.18;-1.813
75.3;2505.25;-1.813
75.32;2505.99;-1.813
75.33;2505.61;-1.813
75.35;2506.42;-1.813
75.37;2505.83;-1.813
75.38;2505.98;-1.813
75.4;2505.83;-1.813
75.42;2505.78;-1.813
75.43;2506.78;-1.813
75.45;2507.28;-1.813
75.47;2507.64;-1.813
75.48;2507.45;-1.813
75.5;2507.52;-1.813
75.52;2508.01;-1.813
75.53;2507.7;-1.813
75.55;2508.27;-1.813
75.57;2508.13;-1.813
75.58;2509.17;-1.813
75.6;2508.9;-1.813
75.62;2508.86;-1.813
75.63;2509.25;-1.813
75.65;2509.16;-1.813
75.67;2509.05;-1.813
75.68;2508.86;-1.813
75.7;2509.28;-1.813
75.72;2509.57;-1.813
75.73;2509.93;-1.813
75.75;2509;-1.813
75.77;2509.06;-1.813
75.78;2509.1;-1.813
75.8;2509;-1.813
75.82;2508.45;-1.813
75.83;2509.39;-1.813
75.85;2509.76;-1.813
75.87;2510.06;-1.813
75.88;2509.4;-1.813
75.9;2510.38;-1.813
75.92;2509.56;-1.813
75.93;2509.25;-1.813
75.95;2509.46;-1.813
75.97;2509.51;-1.813
75.98;2509.81;-1.813
76;2509.73;-1.813
76.02;2509.79;-1.813
76.03;2509.93;-1.813
76.05;2509.63;-1.813
76.07;2509.71;-1.813
76.08;2509.4;-1.813
76.1;2510.24;-1.813
76.12;2510.08;-1.813
76.13;2510.75;-1.813
76.15;2510.4;-1.813
76.17;2510.63;-1.813
76.18;2509.75;-1.813
76.2;2510.58;-1.813
76.22;2510.12;-1.813
76.23;2510.66;-1.813
76.25;2510.71;-1.813
76.27;2511.2;-1.813
76.28;2511;-1.813
76.3;2510.57;-1.813
76.32;2509.87;-1.813
76.33;2510.93;-1.813
76.35;2510.81;-1.813
76.37;2511.03;-1.813
76.38;2511.88;-1.813
76.4;2512.49;-1.813
76.42;2512.52;-1.813
76.43;2512.77;-1.813
76.45;2511.99;-1.813
76.47;2512.73;-1.813
76.48;2512.7;-1.813
76.5;2512.87;-1.813
76.52;2512.71;-1.813
76.53;2513.6;-1.813
76.55;2513.87;-1.813
76.57;2513.89;-1.813
76.58;2513.8;-1.813
76.6;2513.78;-1.813
76.62;2513.96;-1.813
76.63;2514.21;-1.813
76.65;2514.13;-1.813
76.67;2514.95;-1.813
76.68;2515.11;-1.813
76.7;2515.09;-1.813
76.72;2515.18;-1.813
76.73;2514.95;-1.813
76.75;2515.76;-1.813
76.77;2515.73;-1.813
76.78;2516.26;-1.813
76.8;2516.46;-1.813
76.82;2516.12;-1.813
76.83;2516.56;-1.813
76.85;2516.43;-1.813
76.87;2516.45;-1.813
76.88;2516.31;-1.813
76.9;2515.96;-1.813
76.92;2516.57;-1.813
76.93;2517.08;-1.813
76.95;2516.95;-1.813
76.97;2516.49;-1.813
76.98;2516.61;-1.813
77;2515.85;-1.813
77.02;2516.14;-1.813
77.03;2516.02;-1.813
77.05;2516.66;-1.813
77.07;2516.28;-1.813
77.08;2515.8;-1.813
77.1;2516.16;-1.813
77.12;2515.73;-1.813
77.13;2516.11;-1.813
77.15;2516.38;-1.813
77.17;2515.92;-1.813
77.18;2516.3;-1.813
77.2;2516.59;-1.813
77.22;2516.99;-1.813
77.23;2516.91;-1.813
77.25;2516.92;-1.813
77.27;2516.58;-1.813
77.28;2516.36;-1.813
77.3;2515.94;-1.813
77.32;2515.73;-1.813
77.33;2515.38;-1.813
77.35;2516.3;-1.813
77.37;2516.03;-1.813
77.38;2516.14;-1.813
77.4;2515.72;-1.813
77.42;2515.41;-1.813
77.43;2515.85;-1.813
77.45;2515.41;-1.813
77.47;2514.45;-1.813
77.48;2514.32;-1.813
77.5;2514.04;-1.813
77.52;2514.45;-1.813
77.53;2513.82;-1.813
77.55;2514.46;-1.813
77.57;2514.51;-1.813
77.58;2514.21;-1.813
77.6;2512.82;-1.813
77.62;2513.7;-1.813
77.63;2514.21;-1.813
77.65;2513.84;-1.813
77.67;2513.06;-1.813
77.68;2513.34;-1.813
77.7;2512.97;-1.813
77.72;2513.17;-1.813
77.73;2513.61;-1.813
77.75;2513.81;-1.813
77.77;2513.21;-1.813
77.78;2513.73;-1.813
77.8;2513.44;-1.813
77.82;2512.48;-1.813
77.83;2512.42;-1.813
77.85;2512.81;-1.813
77.87;2513.35;-1.813
77.88;2513.59;-1.813
77.9;2513.87;-1.813
77.92;2513.88;-1.813
77.93;2513.49;-1.813
77.95;2513.15;-1.813
77.97;2513.47;-1.813
77.98;2513.52;-1.813
78;2513.71;-1.813
78.02;2514.3;-1.813
78.03;2514.89;-1.813
78.05;2515.16;-1.813
78.07;2515.35;-1.813
78.08;2515.52;-1.813
78.1;2515.5;-1.813
78.12;2514.87;-1.813
78.13;2515.56;-1.813
78.15;2515.35;-1.813
78.17;2515.72;-1.813
78.18;2516.4;-1.813
78.2;2516.5;-1.813
78.22;2516.19;-1.813
78.23;2516.54;-1.813
78.25;2516.78;-1.813
78.27;2516.2;-1.813
78.28;2517.08;-1.813
78.3;2517.01;-1.813
78.32;2517.04;-1.813
78.33;2516.64;-1.813
78.35;2516.88;-1.813
78.37;2517.34;-1.813
78.38;2517.53;-1.813
78.4;2517.9;-1.813
78.42;2517.92;-1.813
78.43;2518.28;-1.813
78.45;2518.97;-1.813
78.47;2519.77;-1.813
78.48;2518.74;-1.813
78.5;2519.43;-1.813
78.52;2519.09;-1.813
78.53;2519.88;-1.813
78.55;2519.89;-1.813
78.57;2520.43;-1.813
78.58;2519.74;-1.813
78.6;2520.43;-1.813
78.62;2520.05;-1.813
78.63;2520.44;-1.813
78.65;2519.44;-1.813
78.67;2519.95;-1.813
78.68;2520.7;-1.813
78.7;2520.36;-1.813
78.72;2521.13;-1.813
78.73;2521.15;-1.813
78.75;2521.11;-1.813
78.77;2520.52;-1.813
78.78;2520.59;-1.813
78.8;2521.28;-1.813
78.82;2521.76;-1.813
78.83;2522.1;-1.813
78.85;2522.25;-1.813
78.87;2522.98;-1.813
78.88;2522.57;-1.813
78.9;2522.07;-1.813
78.92;2521.59;-1.813
78.93;2522.37;-1.813
78.95;2523.28;-1.813
78.97;2522.88;-1.813
78.98;2522.87;-1.813
79;2522.48;-1.813
79.02;2522.57;-1.813
79.03;2522.63;-1.813
79.05;2521.8;-1.813
79.07;2522.08;-1.813
79.08;2522.79;-1.813
79.1;2522.97;-1.813
79.12;2523;-1.813
79.13;2522.1;-1.813
79.15;2522.67;-1.813
79.17;2523.43;-1.813
79.18;2522.13;-1.813
79.2;2522.97;-1.813
79.22;2522.77;-1.813
79.23;2523.73;-1.813
79.25;2523.47;-1.813
79.27;2523.79;-1.813
79.28;2523.69;-1.813
79.3;2523.53;-1.813
79.32;2522.62;-1.813
79.33;2522.63;-1.813
79.35;2523.33;-1.813
79.37;2523.09;-1.813
79.38;2523.28;-1.813
79.4;2523.26;-1.813
79.42;2523.35;-1.813
79.43;2523.03;-1.813
79.45;2522.84;-1.813
79.47;2522.54;-1.813
79.48;2522.67;-1.813
79.5;2523.08;-1.813
79.52;2523.14;-1.813
79.53;2523.52;-1.813
79.55;2523.51;-1.813
79.57;2523.28;-1.813
79.58;2523.43;-1.813
79.6;2522.97;-1.813
79.62;2523.51;-1.813
79.63;2523.16;-1.813
79.65;2523.78;-1.813
79.67;2523.6;-1.813
79.68;2524.03;-1.813
79.7;2523.78;-1.813
79.72;2523.37;-1.813
79.73;2523.65;-1.813
79.75;2524.3;-1.813
79.77;2524.22;-1.813
79.78;2524.34;-1.813
79.8;2523.81;-1.813
79.82;2523.63;-1.813
79.83;2523.98;-1.813
79.85;2524.29;-1.813
79.87;2524;-1.813
79.88;2523.4;-1.813
79.9;2523.9;-1.813
79.92;2523.73;-1.813
79.93;2523.26;-1.813
79.95;2523.47;-1.813
79.97;2523.61;-1.813
79.98;2522.87;-1.813
80;2523.07;-1.813
80.02;2522.98;-1.813
80.03;2523.42;-1.813
80.05;2523.27;-1.813
80.07;2523.05;-1.813
80.08;2522.39;-1.813
80.1;2522.53;-1.813
80.12;2522.41;-1.813
80.13;2522.41;-1.813
80.15;2522.81;-1.813
80.17;2522.83;-1.813
80.18;2522.85;-1.813
80.2;2521.73;-1.813
80.22;2521.48;-1.813
80.23;2521.4;-1.813
80.25;2521.39;-1.813
80.27;2521.09;-1.813
80.28;2520.83;-1.813
80.3;2520.82;-1.813
80.32;2520.96;-1.813
80.33;2520.64;-1.813
80.35;2520.73;-1.813
80.37;2520.67;-1.813
80.38;2520.4;-1.813
80.4;2520.11;-1.813
80.42;2520.01;-1.813
80.43;2520.1;-1.813
80.45;2520.25;-1.813
80.47;2520.79;-1.813
80.48;2520.83;-1.813
80.5;2520.47;-1.813
80.52;2520.7;-1.813
80.53;2520.5;-1.813
80.55;2520.4;-1.813
80.57;2519.89;-1.813
80.58;2519.44;-1.813
80.6;2519.73;-1.813
80.62;2519.63;-1.813
80.63;2519.42;-1.813
80.65;2519.72;-1.813
80.67;2519.46;-1.813
80.68;2519.5;-1.813
80.7;2519.36;-1.813
80.72;2519.26;-1.813
80.73;2519.66;-1.813
80.75;2519.24;-1.813
80.77;2519.71;-1.813
80.78;2519.14;-1.813
80.8;2518.71;-1.813
80.82;2518.5;-1.813
80.83;2518.25;-1.813
80.85;2518.5;-1.813
80.87;2519.49;-1.813
80.88;2519.14;-1.813
80.9;2519.87;-1.813
80.92;2519.96;-1.813
80.93;2519.4;-1.813
80.95;2519.09;-1.813
80.97;2518.88;-1.813
80.98;2519.04;-1.813
81;2518.98;-1.813
81.02;2519.02;-1.813
81.03;2518.5;-1.813
81.05;2518.99;-1.813
81.07;2518.79;-1.813
81.08;2518.25;-1.813
81.1;2518.3;-1.813
81.12;2517.85;-1.813
81.13;2518.68;-1.813
81.15;2517.87;-1.813
81.17;2517.93;-1.813
81.18;2518.21;-1.813
81.2;2518.02;-1.813
81.22;2517.92;-1.813
81.23;2518.69;-1.813
81.25;2518.25;-1.813
81.27;2518.02;-1.813
81.28;2517.84;-1.813
81.3;2518.62;-1.813
81.32;2518.62;-1.813
81.33;2518.53;-1.813
81.35;2518.14;-1.813
81.37;2518.02;-1.813
81.38;2517.8;-1.813
81.4;2518.26;-1.813
81.42;2517.66;-1.813
81.43;2517.91;-1.813
81.45;2518.16;-1.813
81.47;2518;-1.813
81.48;2517.63;-1.813
81.5;2516.98;-1.813
81.52;2516.66;-1.813
81.53;2516.49;-1.813
81.55;2517.64;-1.813
81.57;2517.53;-1.813
81.58;2517.88;-1.813
81.6;2517.87;-1.813
81.62;2517.09;-1.813
81.63;2517.41;-1.813
81.65;2517.88;-1.813
81.67;2517.71;-1.813
81.68;2517.95;-1.813
81.7;2518.21;-1.813
81.72;2518.61;-1.813
81.73;2518.06;-1.813
81.75;2517.62;-1.813
81.77;2517.67;-1.813
81.78;2517.58;-1.813
81.8;2517.51;-1.813
81.82;2517.73;-1.813
81.83;2517.65;-1.813
81.85;2517.63;-1.813
81.87;2516.96;-1.813
81.88;2517.81;-1.813
81.9;2516.96;-1.813
81.92;2516.65;-1.813
81.93;2516.74;-1.813
81.95;2517.16;-1.813
81.97;2517.67;-1.813
81.98;2517.27;-1.813
82;2517.09;-1.813
82.02;2516.41;-1.813
82.03;2516.83;-1.813
82.05;2516.83;-1.813
82.07;2517.43;-1.813
82.08;2517.05;-1.813
82.1;2517.15;-1.813
82.12;2517.14;-1.813
82.13;2516.82;-1.813
82.15;2516.48;-1.813
82.17;2516.74;-1.813
82.18;2516.9;-1.813
82.2;2516.46;-1.813
82.22;2516.46;-1.813
82.23;2516.74;-1.813
82.25;2516.19;-1.813
82.27;2515.8;-1.813
82.28;2516.12;-1.813
82.3;2516.06;-1.813
82.32;2515.02;-1.813
82.33;2515.22;-1.813
82.35;2515.23;-1.813
82.37;2515.29;-1.813
82.38;2515.16;-1.813
82.4;2515.13;-1.813
82.42;2515.09;-1.813
82.43;2514.5;-1.813
82.45;2514.65;-1.813
82.47;2514.59;-1.813
82.48;2514.57;-1.813
82.5;2514.44;-1.813
82.52;2514.9;-1.813
82.53;2514.98;-1.813
82.55;2514.86;-1.813
82.57;2514.09;-1.813
82.58;2514.66;-1.813
82.6;2514.17;-1.813
82.62;2515.04;-1.813
82.63;2514.32;-1.813
82.65;2514.67;-1.813
82.67;2514.5;-1.813
82.68;2514.61;-1.813
82.7;2514.25;-1.813
82.72;2514.07;-1.813
82.73;2513.92;-1.813
82.75;2513.97;-1.813
82.77;2513.71;-1.813
82.78;2513.82;-1.813
82.8;2513.82;-1.813
82.82;2513.19;-1.813
82.83;2513.01;-1.813
82.85;2513.21;-1.813
82.87;2514.22;-1.813
82.88;2514.06;-1.813
82.9;2514.17;-1.813
82.92;2514.27;-1.813
82.93;2514.6;-1.814
82.95;2515.3;-1.813
82.97;2515.22;-1.813
82.98;2515.29;-1.813
83;2515.57;-1.813
83.02;2515.17;-1.813
83.03;2515.41;-1.813
83.05;2515.62;-1.813
83.07;2516.05;-1.813
83.08;2515.84;-1.813
83.1;2516.02;-1.813
83.12;2515.87;-1.813
83.13;2515.92;-1.813
83.15;2515.58;-1.813
83.17;2515.42;-1.813
83.18;2515.6;-1.813
83.2;2516.05;-1.813
83.22;2516.06;-1.813
83.23;2516.39;-1.813
83.25;2516.44;-1.813
83.27;2516.57;-1.813
83.28;2516.75;-1.813
83.3;2516.21;-1.813
83.32;2516.19;-1.813
83.33;2515.83;-1.813
83.35;2516.71;-1.813
83.37;2516.84;-1.813
83.38;2516.82;-1.813
83.4;2516.69;-1.813
83.42;2516.89;-1.813
83.43;2516.75;-1.813
83.45;2516.48;-1.813
83.47;2517.11;-1.813
83.48;2516.73;-1.813
83.5;2517.37;-1.813
83.52;2516.98;-1.813
83.53;2516.92;-1.813
83.55;2516.96;-1.813
83.57;2516.76;-1.813
83.58;2516.91;-1.813
83.6;2516.74;-1.813
83.62;2516.03;-1.813
83.63;2516.44;-1.813
83.65;2516.15;-1.813
83.67;2516.19;-1.813
83.68;2516.48;-1.813
83.7;2516.3;-1.813
83.72;2516.35;-1.813
83.73;2516.54;-1.813
83.75;2516.51;-1.813
83.77;2516.58;-1.813
83.78;2516.28;-1.813
83.8;2516.55;-1.813
83.82;2516.33;-1.813
83.83;2516.01;-1.813
83.85;2516.06;-1.813
83.87;2515.54;-1.813
83.88;2516.02;-1.813
83.9;2515.19;-1.813
83.92;2516.15;-1.813
83.93;2515.61;-1.813
83.95;2515.57;-1.813
83.97;2515.12;-1.813
83.98;2514.78;-1.813
84;2514.73;-1.813
84.02;2514.56;-1.813
84.03;2514.94;-1.813
84.05;2514.89;-1.813
84.07;2515.04;-1.813
84.08;2515.39;-1.813
84.1;2515.13;-1.813
84.12;2514.27;-1.813
84.13;2514.31;-1.813
84.15;2514.14;-1.813
84.17;2514.7;-1.813
84.18;2514.76;-1.813
84.2;2514.47;-1.813
84.22;2514.55;-1.813
84.23;2514.69;-1.813
84.25;2514.32;-1.813
84.27;2514.5;-1.813
84.28;2514.63;-1.813
84.3;2514.83;-1.813
84.32;2513.97;-1.813
84.33;2513.98;-1.813
84.35;2513.87;-1.813
84.37;2513.86;-1.813
84.38;2513.45;-1.813
84.4;2513.76;-1.813
84.42;2513.44;-1.813
84.43;2513.63;-1.813
84.45;2513.45;-1.813
84.47;2513.13;-1.813
84.48;2513.42;-1.813
84.5;2513.37;-1.813
84.52;2513.05;-1.813
84.53;2513.49;-1.813
84.55;2513.01;-1.813
84.57;2514.18;-1.813
84.58;2513.77;-1.813
84.6;2514.05;-1.813
84.62;2513.72;-1.813
84.63;2513.63;-1.813
84.65;2513.1;-1.813
84.67;2513.26;-1.813
84.68;2512.84;-1.813
84.7;2513.45;-1.813
84.72;2513.23;-1.813
84.73;2512.85;-1.813
84.75;2513.03;-1.813
84.77;2513.03;-1.813
84.78;2513.72;-1.813
84.8;2513.13;-1.813
84.82;2512.92;-1.813
84.83;2512.46;-1.813
84.85;2512.27;-1.813
84.87;2512.37;-1.813
84.88;2512.62;-1.813
84.9;2513.23;-1.813
84.92;2512.69;-1.813
84.93;2512.64;-1.813
84.95;2512.82;-1.813
84.97;2512.65;-1.813
84.98;2512.67;-1.813
85;2513.1;-1.813
85.02;2512.74;-1.813
85.03;2512.57;-1.813
85.05;2512.43;-1.813
85.07;2512.75;-1.813
85.08;2512.02;-1.813
85.1;2511.79;-1.813
85.12;2511.57;-1.813
85.13;2511.67;-1.813
85.15;2511.72;-1.813
85.17;2511.75;-1.813
85.18;2511.08;-1.813
85.2;2511.15;-1.813
85.22;2510.96;-1.813
85.23;2510.9;-1.813
85.25;2511.16;-1.813
85.27;2511.31;-1.813
85.28;2511.19;-1.813
85.3;2510.64;-1.813
85.32;2511.17;-1.813
85.33;2511.34;-1.813
85.35;2510.96;-1.813
85.37;2511.21;-1.813
85.38;2511.28;-1.813
85.4;2510.75;-1.813
85.42;2511.1;-1.813
85.43;2510.26;-1.813
85.45;2510.71;-1.813
85.47;2510.8;-1.813
85.48;2510.98;-1.813
85.5;2510.16;-1.813
85.52;2510.53;-1.813
85.53;2511.17;-1.813
85.55;2511.06;-1.813
85.57;2510.98;-1.813
85.58;2510.32;-1.813
85.6;2511.21;-1.813
85.62;2510.19;-1.813
85.63;2510.13;-1.813
85.65;2509.83;-1.813
85.67;2510.67;-1.813
85.68;2510.06;-1.813
85.7;2510.27;-1.813
85.72;2510.03;-1.813
85.73;2510.83;-1.813
85.75;2510.53;-1.813
85.77;2510.24;-1.814
85.78;2510.5;-1.813
85.8;2510.84;-1.813
85.82;2510.31;-1.813
85.83;2510.45;-1.813
85.85;2510.97;-1.813
85.87;2511.39;-1.813
85.88;2510.92;-1.813
85.9;2510.78;-1.813
85.92;2510.72;-1.813
85.93;2510.7;-1.813
85.95;2510.39;-1.813
85.97;2510.75;-1.813
85.98;2510.62;-1.813
86;2510.21;-1.813
86.02;2509.84;-1.813
86.03;2509.99;-1.813
86.05;2510.16;-1.813
86.07;2510.39;-1.813
86.08;2510.71;-1.813
86.1;2510.55;-1.813
86.12;2510.95;-1.813
86.13;2510.82;-1.813
86.15;2511;-1.813
86.17;2510.83;-1.813
86.18;2510.74;-1.813
86.2;2510.89;-1.813
86.22;2510.91;-1.813
86.23;2511.14;-1.813
86.25;2511.28;-1.813
86.27;2511.31;-1.813
86.28;2512.14;-1.813
86.3;2511.59;-1.813
86.32;2511.52;-1.813
86.33;2511.07;-1.813
86.35;2511.17;-1.813
86.37;2511.51;-1.813
86.38;2511.74;-1.813
86.4;2512.26;-1.813
86.42;2511.79;-1.813
86.43;2511.25;-1.813
86.45;2511.57;-1.813
86.47;2511.05;-1.813
86.48;2510.62;-1.814
86.5;2511.09;-1.813
86.52;2511.01;-1.813
86.53;2511.16;-1.813
86.55;2511.58;-1.813
86.57;2511.02;-1.813
86.58;2511.15;-1.813
86.6;2510.85;-1.813
86.62;2510.65;-1.813
86.63;2510.85;-1.813
86.65;2511.34;-1.813
86.67;2511.44;-1.813
86.68;2511.28;-1.813
86.7;2511.47;-1.813
86.72;2510.59;-1.813
86.73;2510.79;-1.813
86.75;2511.2;-1.813
86.77;2511.14;-1.813
86.78;2511.76;-1.813
86.8;2511.83;-1.813
86.82;2511.33;-1.813
86.83;2510.87;-1.813
86.85;2510.97;-1.814
86.87;2510.39;-1.814
86.88;2511.24;-1.814
86.9;2511.29;-1.814
86.92;2512.06;-1.813
86.93;2511.87;-1.813
86.95;2511.62;-1.813
86.97;2511.22;-1.813
86.98;2511.43;-1.813
87;2511.61;-1.813
87.02;2511.31;-1.813
87.03;2511.88;-1.813
87.05;2512.53;-1.813
87.07;2512;-1.813
87.08;2511.93;-1.813
87.1;2512.19;-1.813
87.12;2511.82;-1.813
87.13;2511.73;-1.813
87.15;2512.14;-1.813
87.17;2511.54;-1.814
87.18;2511.87;-1.813
87.2;2512.12;-1.813
87.22;2511.81;-1.813
87.23;2511.4;-1.813
87.25;2510.94;-1.813
87.27;2510.8;-1.813
87.28;2511.73;-1.813
87.3;2511.35;-1.813
87.32;2511.5;-1.813
87.33;2511.28;-1.813
87.35;2511.52;-1.813
87.37;2510.89;-1.813
87.38;2511.12;-1.813
87.4;2511.05;-1.813
87.42;2511.03;-1.813
87.43;2511.24;-1.813
87.45;2511.28;-1.813
87.47;2511.49;-1.813
87.48;2511.45;-1.813
87.5;2512;-1.813
87.52;2511.51;-1.814
87.53;2511.48;-1.814
87.55;2510.91;-1.814
87.57;2511.09;-1.814
87.58;2511.61;-1.814
87.6;2512.01;-1.814
87.62;2512.18;-1.814
87.63;2512.03;-1.813
87.65;2512.05;-1.813
87.67;2512.42;-1.813
87.68;2512.48;-1.813
87.7;2512.45;-1.813
87.72;2512.71;-1.813
87.73;2512.6;-1.813
87.75;2513.28;-1.813
87.77;2513.07;-1.813
87.78;2513.55;-1.813
87.8;2512.98;-1.813
87.82;2512.85;-1.813
87.83;2513.8;-1.813
87.85;2514.51;-1.813
87.87;2514.74;-1.813
87.88;2514.65;-1.813
87.9;2514.72;-1.814
87.92;2514.4;-1.814
87.93;2514.64;-1.814
87.95;2515.19;-1.814
87.97;2514.91;-1.814
87.98;2515.17;-1.814
88;2516.04;-1.814
88.02;2515.53;-1.814
88.03;2515.61;-1.814
88.05;2514.92;-1.814
88.07;2515.2;-1.813
88.08;2515.58;-1.813
88.1;2515.97;-1.813
88.12;2516.05;-1.813
88.13;2515.92;-1.813
88.15;2516.49;-1.813
88.17;2516.42;-1.813
88.18;2516.41;-1.813
88.2;2516.26;-1.813
88.22;2516.77;-1.814
88.23;2516.89;-1.814
88.25;2516.15;-1.814
88.27;2517.32;-1.814
88.28;2517.73;-1.814
88.3;2517.6;-1.814
88.32;2517.03;-1.814
88.33;2516.86;-1.813
88.35;2517.38;-1.814
88.37;2516.79;-1.814
88.38;2517.32;-1.813
88.4;2517.24;-1.814
88.42;2517.42;-1.814
88.43;2517.22;-1.813
88.45;2516.97;-1.813
88.47;2517.08;-1.813
88.48;2517.1;-1.813
88.5;2517.24;-1.813
88.52;2517.21;-1.813
88.53;2517.51;-1.813
88.55;2516.95;-1.813
88.57;2517.76;-1.813
88.58;2517.96;-1.813
88.6;2518;-1.813
88.62;2517.75;-1.814
88.63;2517.07;-1.814
88.65;2517.17;-1.814
88.67;2517.6;-1.814
88.68;2518.17;-1.814
88.7;2518.02;-1.814
88.72;2517.86;-1.814
88.73;2517.24;-1.814
88.75;2517.18;-1.814
88.77;2517.16;-1.813
88.78;2517.11;-1.813
88.8;2516.71;-1.813
88.82;2517.05;-1.813
88.83;2517.07;-1.813
88.85;2516.36;-1.814
88.87;2515.93;-1.813
88.88;2516.59;-1.814
88.9;2515.83;-1.814
88.92;2516.12;-1.814
88.93;2515.94;-1.814
88.95;2516.34;-1.814
88.97;2516.21;-1.814
88.98;2516.01;-1.814
89;2516.49;-1.814
89.02;2516.21;-1.814
89.03;2515.76;-1.814
89.05;2515.96;-1.814
89.07;2515.96;-1.814
89.08;2516.14;-1.814
89.1;2516.51;-1.814
89.12;2516.37;-1.814
89.13;2516.18;-1.814
89.15;2516.05;-1.813
89.17;2516.29;-1.814
89.18;2515.88;-1.813
89.2;2515.36;-1.813
89.22;2515.28;-1.813
89.23;2515.89;-1.813
89.25;2516.52;-1.813
89.27;2515.65;-1.813
89.28;2514.72;-1.814
89.3;2515.08;-1.814
89.32;2514.69;-1.814
89.33;2514.55;-1.814
89.35;2514.49;-1.814
89.37;2514.39;-1.814
89.38;2515.38;-1.814
89.4;2514.99;-1.814
89.42;2514.81;-1.814
89.43;2514.3;-1.814
89.45;2514.32;-1.814
89.47;2514.1;-1.814
89.48;2514.17;-1.814
89.5;2514.46;-1.813
89.52;2514.38;-1.814
89.53;2514.06;-1.814
89.55;2513.08;-1.813
89.57;2513.18;-1.814
89.58;2513.39;-1.813
89.6;2513.31;-1.814
89.62;2513.82;-1.814
89.63;2513.78;-1.814
89.65;2513.6;-1.814
89.67;2513.48;-1.814
89.68;2512.6;-1.814
89.7;2511.8;-1.814
89.72;2511.79;-1.814
89.73;2512.21;-1.814
89.75;2512.34;-1.814
89.77;2512.47;-1.814
89.78;2512.57;-1.814
89.8;2512.72;-1.814
89.82;2512.38;-1.814
89.83;2511.81;-1.814
89.85;2510.77;-1.814
89.87;2511.35;-1.814
89.88;2512.04;-1.813
89.9;2512;-1.813
89.92;2512.26;-1.814
89.93;2511.82;-1.813
89.95;2510.91;-1.814
89.97;2511.29;-1.814
89.98;2510.79;-1.814
90;2511.04;-1.814
90.02;2511.17;-1.814
90.03;2511.42;-1.814
90.05;2511.72;-1.814
90.07;2511.78;-1.814
90.08;2510.92;-1.814
90.1;2510.97;-1.814
90.12;2510.61;-1.814
90.13;2510.28;-1.814
90.15;2509.96;-1.814
90.17;2510.14;-1.814
90.18;2510.15;-1.814
90.2;2510.94;-1.814
90.22;2510.63;-1.814
90.23;2510.65;-1.814
90.25;2510.86;-1.814
90.27;2510.35;-1.814
90.28;2510.21;-1.814
90.3;2510.81;-1.814
90.32;2510.58;-1.814
90.33;2510.92;-1.813
90.35;2511.26;-1.813
90.37;2510.51;-1.814
90.38;2509.98;-1.814
90.4;2510.39;-1.814
90.42;2510.54;-1.814
90.43;2510.47;-1.814
90.45;2511.04;-1.814
90.47;2510.65;-1.814
90.48;2510.67;-1.814
90.5;2509.93;-1.814
90.52;2509.34;-1.814
90.53;2509.78;-1.814
90.55;2509.98;-1.814
90.57;2510.19;-1.814
90.58;2510.45;-1.814
90.6;2510.46;-1.814
90.62;2511.21;-1.814
90.63;2510.23;-1.814
90.65;2509.47;-1.814
90.67;2509.21;-1.814
90.68;2509.59;-1.814
90.7;2510.56;-1.814
90.72;2510.23;-1.814
90.73;2510.5;-1.814
90.75;2510.94;-1.814
90.77;2510.33;-1.814
90.78;2510.47;-1.814
90.8;2510.38;-1.814
90.82;2510.59;-1.814
90.83;2510;-1.814
90.85;2509.87;-1.814
90.87;2509.96;-1.814
90.88;2510.23;-1.814
90.9;2510.18;-1.814
90.92;2509.45;-1.814
90.93;2508.98;-1.814
90.95;2508.9;-1.814
90.97;2509.4;-1.814
90.98;2508.7;-1.814
91;2508.86;-1.814
91.02;2509.28;-1.813
91.03;2508.84;-1.814
91.05;2508.69;-1.813
91.07;2508.1;-1.814
91.08;2507.92;-1.814
91.1;2508.59;-1.814
91.12;2508.66;-1.814
91.13;2508.74;-1.814
91.15;2508.69;-1.814
91.17;2508.6;-1.814
91.18;2508.02;-1.814
91.2;2508.09;-1.814
91.22;2508.05;-1.814
91.23;2508.21;-1.814
91.25;2507.73;-1.814
91.27;2508.32;-1.814
91.28;2508.86;-1.814
91.3;2507.91;-1.814
91.32;2508.07;-1.814
91.33;2507.31;-1.814
91.35;2507.85;-1.814
91.37;2507.48;-1.814
91.38;2507.38;-1.814
91.4;2507.99;-1.814
91.42;2508.21;-1.814
91.43;2508.53;-1.814
91.45;2508.09;-1.814
91.47;2507.04;-1.814
91.48;2507.55;-1.814
91.5;2507.48;-1.814
91.52;2507.88;-1.814
91.53;2507.6;-1.814
91.55;2508.5;-1.814
91.57;2508.24;-1.814
91.58;2508.2;-1.814
91.6;2507.62;-1.814
91.62;2507.73;-1.814
91.63;2507.42;-1.814
91.65;2507.28;-1.814
91.67;2507.51;-1.814
91.68;2507.83;-1.814
91.7;2507.43;-1.814
91.72;2507.44;-1.814
91.73;2507.16;-1.814
91.75;2506.9;-1.814
91.77;2506.92;-1.814
91.78;2507.07;-1.814
91.8;2507.32;-1.814
91.82;2506.9;-1.814
91.83;2506.77;-1.814
91.85;2507.83;-1.814
91.87;2507.43;-1.814
91.88;2506.9;-1.814
91.9;2506.63;-1.814
91.92;2507.37;-1.814
91.93;2507.73;-1.814
91.95;2507.15;-1.814
91.97;2507.44;-1.814
91.98;2507.26;-1.814
92;2507.24;-1.814
92.02;2507.62;-1.814
92.03;2507.34;-1.814
92.05;2507.09;-1.814
92.07;2507.27;-1.814
92.08;2507.26;-1.814
92.1;2507.59;-1.814
92.12;2507.8;-1.814
92.13;2507.21;-1.814
92.15;2506.62;-1.814
92.17;2506.79;-1.814
92.18;2506.53;-1.814
92.2;2507.95;-1.814
92.22;2507.71;-1.814
92.23;2507.41;-1.814
92.25;2507.87;-1.814
92.27;2508.39;-1.814
92.28;2507.62;-1.814
92.3;2507.44;-1.814
92.32;2507.18;-1.814
92.33;2507.79;-1.814
92.35;2507.68;-1.814
92.37;2508.03;-1.814
92.38;2508.31;-1.814
92.4;2507.87;-1.814
92.42;2508.05;-1.814
92.43;2508.71;-1.814
92.45;2508.42;-1.814
92.47;2508.69;-1.814
92.48;2507.95;-1.814
92.5;2509.3;-1.814
92.52;2508.85;-1.814
92.53;2508.42;-1.814
92.55;2508.45;-1.814
92.57;2508.58;-1.814
92.58;2508.77;-1.814
92.6;2509.65;-1.814
92.62;2509.8;-1.814
92.63;2510.08;-1.814
92.65;2510.22;-1.814
92.67;2509.4;-1.814
92.68;2509.75;-1.814
92.7;2509.71;-1.814
92.72;2509.36;-1.814
92.73;2510.16;-1.814
92.75;2510.08;-1.814
92.77;2510.69;-1.814
92.78;2510.79;-1.814
92.8;2510.64;-1.814
92.82;2510.94;-1.814
92.83;2510.45;-1.814
92.85;2510.9;-1.814
92.87;2510.9;-1.814
92.88;2511.16;-1.814
92.9;2511.56;-1.814
92.92;2511.56;-1.814
92.93;2511.07;-1.814
92.95;2510.74;-1.814
92.97;2510.7;-1.814
92.98;2510.3;-1.814
93;2510.8;-1.814
93.02;2510.76;-1.814
93.03;2510.99;-1.814
93.05;2511.42;-1.814
93.07;2511.13;-1.814
93.08;2510.93;-1.814
93.1;2511.01;-1.814
93.12;2510.26;-1.814
93.13;2510.12;-1.814
93.15;2510.92;-1.814
93.17;2511.3;-1.814
93.18;2511.89;-1.814
93.2;2511.17;-1.814
93.22;2510.88;-1.814
93.23;2510.45;-1.814
93.25;2510.48;-1.814
93.27;2510.09;-1.814
93.28;2510.72;-1.814
93.3;2511.18;-1.814
93.32;2511.49;-1.814
93.33;2510.88;-1.814
93.35;2510.42;-1.814
93.37;2509.49;-1.814
93.38;2509.82;-1.814
93.4;2510.22;-1.814
93.42;2510.91;-1.814
93.43;2510.42;-1.814
93.45;2510.71;-1.814
93.47;2509.85;-1.814
93.48;2509.95;-1.814
93.5;2510.23;-1.814
93.52;2510.57;-1.814
93.53;2509.97;-1.814
93.55;2510.56;-1.814
93.57;2510.92;-1.814
93.58;2511.53;-1.814
93.6;2510.59;-1.814
93.62;2510.55;-1.814
93.63;2509.78;-1.814
93.65;2509.89;-1.814
93.67;2509.79;-1.814
93.68;2509.76;-1.814
93.7;2510.48;-1.814
93.72;2510.2;-1.814
93.73;2511.06;-1.814
93.75;2509.97;-1.814
93.77;2509.58;-1.814
93.78;2509.22;-1.814
93.8;2509.62;-1.814
93.82;2509.67;-1.814
93.83;2509.79;-1.814
93.85;2509.74;-1.814
93.87;2509.75;-1.814
93.88;2509.55;-1.814
93.9;2509.86;-1.814
93.92;2509.91;-1.814
93.93;2509.15;-1.814
93.95;2509.92;-1.814
93.97;2509.84;-1.814
93.98;2510.4;-1.814
94;2510.22;-1.814
94.02;2509.42;-1.814
94.03;2509.45;-1.814
94.05;2509.09;-1.814
94.07;2509.21;-1.814
94.08;2508.81;-1.814
94.1;2509.05;-1.814
94.12;2509.17;-1.814
94.13;2509.63;-1.814
94.15;2508.71;-1.814
94.17;2508.65;-1.814
94.18;2508.34;-1.814
94.2;2508.04;-1.814
94.22;2508.62;-1.814
94.23;2508.88;-1.814
94.25;2508.51;-1.814
94.27;2508.48;-1.814
94.28;2508.24;-1.814
94.3;2508.73;-1.814
94.32;2507.69;-1.814
94.33;2507.81;-1.814
94.35;2507.89;-1.814
94.37;2508.72;-1.814
94.38;2508.53;-1.814
94.4;2508.44;-1.814
94.42;2508;-1.814
94.43;2507.53;-1.814
94.45;2507.88;-1.814
94.47;2507.86;-1.814
94.48;2507.9;-1.814
94.5;2508.23;-1.814
94.52;2508.22;-1.814
94.53;2508.31;-1.814
94.55;2507.77;-1.814
94.57;2507.11;-1.814
94.58;2506.89;-1.814
94.6;2507.12;-1.814
94.62;2506.91;-1.814
94.63;2506.91;-1.814
94.65;2507.38;-1.814
94.67;2507.58;-1.814
94.68;2506.55;-1.814
94.7;2506.57;-1.814
94.72;2506.83;-1.814
94.73;2506.79;-1.814
94.75;2506.99;-1.814
94.77;2506.13;-1.814
94.78;2506.65;-1.814
94.8;2507.39;-1.814
94.82;2507.25;-1.814
94.83;2506.91;-1.814
94.85;2506.99;-1.814
94.87;2507.23;-1.814
94.88;2507.11;-1.814
94.9;2507.06;-1.814
94.92;2506.96;-1.814
94.93;2507.33;-1.814
94.95;2507.19;-1.814
94.97;2506.85;-1.814
94.98;2505.99;-1.814
95;2506.12;-1.814
95.02;2505.79;-1.814
95.03;2505.56;-1.814
95.05;2506.21;-1.814
95.07;2506.15;-1.814
95.08;2505.79;-1.814
95.1;2506.6;-1.814
95.12;2506.42;-1.814
95.13;2506.3;-1.814
95.15;2506.23;-1.814
95.17;2505.71;-1.814
95.18;2505.64;-1.814
95.2;2506.57;-1.814
95.22;2506.74;-1.814
95.23;2506.73;-1.814
95.25;2506.26;-1.814
95.27;2506.34;-1.814
95.28;2505.52;-1.814
95.3;2505.31;-1.814
95.32;2505.35;-1.814
95.33;2505.45;-1.814
95.35;2505.56;-1.814
95.37;2506.01;-1.814
95.38;2505.57;-1.814
95.4;2505;-1.814
95.42;2505.44;-1.814
95.43;2505.18;-1.814
95.45;2506.02;-1.814
95.47;2505.7;-1.814
95.48;2506.21;-1.814
95.5;2505.66;-1.814
95.52;2505.96;-1.814
95.53;2505.63;-1.814
95.55;2505.48;-1.814
95.57;2505.43;-1.814
95.58;2505.88;-1.814
95.6;2506.21;-1.814
95.62;2506.79;-1.814
95.63;2506.53;-1.814
95.65;2506.76;-1.814
95.67;2506.89;-1.814
95.68;2506.42;-1.814
95.7;2506.61;-1.814
95.72;2506.5;-1.814
95.73;2506.65;-1.814
95.75;2506.82;-1.814
95.77;2507.51;-1.814
95.78;2507.94;-1.814
95.8;2507.46;-1.814
95.82;2507.37;-1.814
95.83;2507.04;-1.814
95.85;2506.65;-1.814
95.87;2506.62;-1.814
95.88;2507.28;-1.814
95.9;2507.38;-1.814
95.92;2507.19;-1.814
95.93;2506.89;-1.814
95.95;2507.11;-1.814
95.97;2506.74;-1.814
95.98;2506.8;-1.814
96;2507.26;-1.814
96.02;2507.64;-1.814
96.03;2507.65;-1.814
96.05;2507.04;-1.814
96.07;2506.64;-1.814
96.08;2506.64;-1.814
96.1;2506.47;-1.814
96.12;2506.3;-1.814
96.13;2506.92;-1.814
96.15;2506.55;-1.814
96.17;2506.7;-1.814
96.18;2506.97;-1.814
96.2;2506.49;-1.814
96.22;2505.53;-1.814
96.23;2505.85;-1.814
96.25;2505.84;-1.814
96.27;2505.67;-1.814
96.28;2506.13;-1.814
96.3;2505.72;-1.814
96.32;2506.12;-1.814
96.33;2506.06;-1.814
96.35;2505.6;-1.814
96.37;2505.43;-1.814
96.38;2504.99;-1.814
96.4;2505.62;-1.814
96.42;2505.88;-1.814
96.43;2505.99;-1.814
96.45;2506.32;-1.814
96.47;2505.5;-1.814
96.48;2505.27;-1.814
96.5;2505.46;-1.814
96.52;2505.61;-1.814
96.53;2505.63;-1.814
96.55;2505.5;-1.814
96.57;2506.39;-1.814
96.58;2506.77;-1.814
96.6;2506.19;-1.814
96.62;2505.46;-1.814
96.63;2504.94;-1.814
96.65;2505.13;-1.814
96.67;2505.91;-1.814
96.68;2505.57;-1.814
96.7;2506.72;-1.814
96.72;2506.5;-1.814
96.73;2506.36;-1.814
96.75;2506.12;-1.814
96.77;2506.1;-1.814
96.78;2506.32;-1.814
96.8;2506.33;-1.814
96.82;2505.69;-1.814
96.83;2506.44;-1.814
96.85;2506.61;-1.814
96.87;2506.61;-1.814
96.88;2506.7;-1.814
96.9;2506.04;-1.814
96.92;2506.19;-1.814
96.93;2506.72;-1.814
96.95;2507.16;-1.814
96.97;2507.32;-1.814
96.98;2507.24;-1.814
97;2507.49;-1.814
97.02;2506.87;-1.814
97.03;2507.05;-1.814
97.05;2506.38;-1.814
97.07;2507.18;-1.814
97.08;2507.23;-1.814
97.1;2508.06;-1.814
97.12;2507.6;-1.814
97.13;2508.17;-1.814
97.15;2507.86;-1.814
97.17;2507.59;-1.814
97.18;2507.54;-1.814
97.2;2507.94;-1.814
97.22;2508.33;-1.814
97.23;2508.61;-1.814
97.25;2508.97;-1.814
97.27;2508.69;-1.814
97.28;2508.45;-1.814
97.3;2508.5;-1.814
97.32;2508.14;-1.814
97.33;2507.83;-1.814
97.35;2508.7;-1.814
97.37;2508.69;-1.814
97.38;2508.04;-1.814
97.4;2509.31;-1.814
97.42;2508.92;-1.814
97.43;2508.89;-1.814
97.45;2508.24;-1.814
97.47;2508.56;-1.814
97.48;2509.13;-1.814
97.5;2509.08;-1.814
97.52;2509.22;-1.814
97.53;2509.36;-1.814
97.55;2509.27;-1.814
97.57;2509.46;-1.814
97.58;2509.59;-1.814
97.6;2509.88;-1.814
97.62;2509.15;-1.814
97.63;2509.98;-1.814
97.65;2510.26;-1.814
97.67;2510.58;-1.814
97.68;2510.38;-1.814
97.7;2509.97;-1.814
97.72;2510.39;-1.814
97.73;2510.37;-1.814
97.75;2510.7;-1.814
97.77;2510.48;-1.814
97.78;2510.76;-1.814
97.8;2510.87;-1.814
97.82;2511.19;-1.814
97.83;2511.43;-1.814
97.85;2510.7;-1.814
97.87;2510.95;-1.814
97.88;2511.43;-1.814
97.9;2511.29;-1.814
97.92;2511.41;-1.814
97.93;2511.64;-1.814
97.95;2511.96;-1.814
97.97;2512.11;-1.814
97.98;2511.73;-1.814
98;2512.15;-1.814
98.02;2511.78;-1.814
98.03;2512.09;-1.814
98.05;2512.58;-1.814
98.07;2513.17;-1.814
98.08;2513.03;-1.814
98.1;2512.84;-1.814
98.12;2512.49;-1.814
98.13;2512.37;-1.814
98.15;2512.87;-1.814
98.17;2512.32;-1.814
98.18;2512.49;-1.814
98.2;2512.3;-1.814
98.22;2512.54;-1.814
98.23;2512.67;-1.814
98.25;2512.49;-1.814
98.27;2512.44;-1.814
98.28;2512.05;-1.814
98.3;2512.28;-1.814
98.32;2512.02;-1.814
98.33;2512.02;-1.814
98.35;2511.84;-1.814
98.37;2511.84;-1.814
98.38;2511.11;-1.814
98.4;2511.32;-1.814
98.42;2510.88;-1.814
98.43;2510.9;-1.814
98.45;2510.85;-1.814
98.47;2510.8;-1.814
98.48;2510.18;-1.814
98.5;2510.5;-1.814
98.52;2510.93;-1.814
98.53;2510.31;-1.814
98.55;2510.29;-1.814
98.57;2510.51;-1.814
98.58;2510.3;-1.814
98.6;2510.44;-1.814
98.62;2510.24;-1.814
98.63;2510.15;-1.814
98.65;2509.95;-1.814
98.67;2509.25;-1.814
98.68;2508.5;-1.814
98.7;2508.94;-1.814
98.72;2509.04;-1.814
98.73;2509.52;-1.814
98.75;2509.15;-1.814
98.77;2509.59;-1.814
98.78;2509.07;-1.814
98.8;2509.32;-1.814
98.82;2508.7;-1.814
98.83;2509.03;-1.814
98.85;2508.6;-1.814
98.87;2508.74;-1.814
98.88;2509.06;-1.814
98.9;2509.15;-1.814
98.92;2508.8;-1.814
98.93;2509.04;-1.814
98.95;2508.38;-1.814
98.97;2508.85;-1.814
98.98;2509;-1.814
99;2508.49;-1.814
99.02;2508.72;-1.814
99.03;2508.96;-1.814
99.05;2509.48;-1.814
99.07;2508.88;-1.814
99.08;2508.65;-1.814
99.1;2508.49;-1.814
99.12;2508.92;-1.814
99.13;2509.96;-1.814
99.15;2508.83;-1.814
99.17;2509.19;-1.814
99.18;2508.91;-1.814
99.2;2509.74;-1.814
99.22;2509.33;-1.814
99.23;2508.89;-1.814
99.25;2509.29;-1.814
99.27;2508.97;-1.814
99.28;2509.54;-1.814
99.3;2509.68;-1.814
99.32;2509.87;-1.814
99.33;2510;-1.814
99.35;2509.65;-1.814
99.37;2509.83;-1.814
99.38;2509.71;-1.814
99.4;2509.75;-1.814
99.42;2509.96;-1.814
99.43;2509.38;-1.814
99.45;2510.17;-1.814
99.47;2510.21;-1.814
99.48;2508.86;-1.814
99.5;2510.02;-1.814
99.52;2509.59;-1.814
99.53;2510.34;-1.814
99.55;2509.81;-1.814
99.57;2510.42;-1.814
99.58;2510.42;-1.814
99.6;2511.31;-1.814
99.62;2510.87;-1.814
99.63;2510.6;-1.814
99.65;2510.5;-1.814
99.67;2511.09;-1.814
99.68;2511.76;-1.814
99.7;2511.83;-1.814
99.72;2511.52;-1.814
99.73;2512.37;-1.814
99.75;2512.7;-1.814
99.77;2511.93;-1.814
99.78;2512.17;-1.814
99.8;2512.51;-1.814
99.82;2512.78;-1.814
99.83;2512.89;-1.814
99.85;2512.69;-1.814
99.87;2512.92;-1.814
99.88;2512.72;-1.814
99.9;2513.23;-1.814
99.92;2513.32;-1.814
99.93;2513.36;-1.814
99.95;2513.52;-1.814
99.97;2512.96;-1.814
99.98;2513.41;-1.814
100;2513.73;-1.814
100.02;2513.78;-1.814
100.03;2514.48;-1.814
100.05;2514.27;-1.814
100.07;2513.95;-1.814
100.08;2514.35;-1.814
100.1;2515.8;-1.814
100.12;2514.95;-1.814
100.13;2514.8;-1.814
100.15;2514.54;-1.814
100.17;2514.52;-1.814
100.18;2515.09;-1.814
100.2;2515.11;-1.814
100.22;2515.34;-1.814
100.23;2515.31;-1.814
100.25;2515.47;-1.814
100.27;2515.27;-1.814
100.28;2515.31;-1.814
100.3;2514.75;-1.814
100.32;2514.59;-1.814
100.33;2515.16;-1.814
100.35;2515.78;-1.814
100.37;2515.6;-1.814
100.38;2515.82;-1.814
100.4;2515.65;-1.814
100.42;2515.68;-1.814
100.43;2515.31;-1.814
100.45;2516.39;-1.814
100.47;2516.16;-1.814
100.48;2515.75;-1.814
100.5;2516.06;-1.814
100.52;2516.7;-1.814
100.53;2516.69;-1.814
100.55;2517.12;-1.814
100.57;2516.22;-1.814
100.58;2516.03;-1.814
100.6;2516.1;-1.814
100.62;2516.11;-1.814
100.63;2516.19;-1.814
100.65;2516.44;-1.814
100.67;2516.37;-1.814
100.68;2516.26;-1.814
100.7;2515.97;-1.814
100.72;2515.96;-1.814
100.73;2515.96;-1.814
100.75;2516.18;-1.814
100.77;2516.08;-1.814
100.78;2516.19;-1.814
100.8;2515.43;-1.814
100.82;2515.62;-1.814
100.83;2515.03;-1.814
100.85;2515.38;-1.814
100.87;2516.1;-1.814
100.88;2515.99;-1.814
100.9;2516.19;-1.814
100.92;2516.59;-1.814
100.93;2515.63;-1.814
100.95;2515.81;-1.814
100.97;2515.42;-1.814
100.98;2515.28;-1.814
101;2515.67;-1.814
101.02;2515.99;-1.814
101.03;2515.97;-1.814
101.05;2515.55;-1.814
101.07;2515.12;-1.814
101.08;2514.41;-1.814
101.1;2514.21;-1.814
101.12;2514.68;-1.814
101.13;2514.86;-1.814
101.15;2514.16;-1.814
101.17;2514.55;-1.814
101.18;2514.77;-1.814
101.2;2514.52;-1.814
101.22;2514.23;-1.814
101.23;2514.06;-1.814
101.25;2514.3;-1.814
101.27;2515.09;-1.814
101.28;2514.36;-1.814
101.3;2513.81;-1.814
101.32;2513.98;-1.814
101.33;2514.37;-1.814
101.35;2514.44;-1.814
101.37;2513.99;-1.814
101.38;2513.81;-1.814
101.4;2514.16;-1.814
101.42;2514.86;-1.814
101.43;2514.14;-1.814
101.45;2514.15;-1.814
101.47;2513.81;-1.814
101.48;2513.65;-1.814
101.5;2513.96;-1.814
101.52;2512.95;-1.814
101.53;2512.99;-1.814
101.55;2513.5;-1.814
101.57;2513.37;-1.814
101.58;2513.28;-1.814
101.6;2512.34;-1.814
101.62;2512.73;-1.814
101.63;2512.73;-1.814
101.65;2512.83;-1.814
101.67;2512.97;-1.814
101.68;2512.08;-1.814
101.7;2511.99;-1.814
101.72;2512.63;-1.814
101.73;2513.18;-1.814
101.75;2513.6;-1.814
101.77;2513.02;-1.814
101.78;2512.7;-1.814
101.8;2512.5;-1.814
101.82;2512.48;-1.814
101.83;2512.52;-1.814
101.85;2512.72;-1.814
101.87;2512.64;-1.814
101.88;2512.1;-1.814
101.9;2512.18;-1.814
101.92;2513.12;-1.814
101.93;2512.44;-1.814
101.95;2512.47;-1.814
101.97;2513.07;-1.814
101.98;2512.5;-1.814
102;2512.61;-1.814
102.02;2513.01;-1.814
102.03;2512.47;-1.814
102.05;2512.49;-1.814
102.07;2513.19;-1.814
102.08;2512.87;-1.814
102.1;2512.82;-1.814
102.12;2512.96;-1.814
102.13;2513.15;-1.814
102.15;2513.34;-1.814
102.17;2513.09;-1.814
102.18;2513.38;-1.814
102.2;2513.54;-1.814
102.22;2513.71;-1.814
102.23;2513.86;-1.814
102.25;2513.69;-1.814
102.27;2513.02;-1.814
102.28;2512.83;-1.814
102.3;2513.4;-1.814
102.32;2513.27;-1.814
102.33;2513.59;-1.814
102.35;2513.31;-1.814
102.37;2513.5;-1.814
102.38;2512.91;-1.814
102.4;2512.8;-1.814
102.42;2513.95;-1.814
102.43;2513.54;-1.814
102.45;2513.8;-1.814
102.47;2513.3;-1.814
102.48;2513.57;-1.814
102.5;2513.69;-1.814
102.52;2513.33;-1.814
102.53;2513.59;-1.814
102.55;2513.39;-1.814
102.57;2513.49;-1.814
102.58;2513.32;-1.814
102.6;2513.21;-1.814
102.62;2512.45;-1.814
102.63;2513.43;-1.814
102.65;2513.38;-1.814
102.67;2513.7;-1.814
102.68;2513.39;-1.814
102.7;2513.09;-1.814
102.72;2513.95;-1.814
102.73;2513.36;-1.814
102.75;2513.09;-1.814
102.77;2512.99;-1.814
102.78;2512.46;-1.814
102.8;2513.06;-1.814
102.82;2512.89;-1.814
102.83;2512.84;-1.814
102.85;2513.05;-1.814
102.87;2512.86;-1.814
102.88;2513.77;-1.814
102.9;2513.07;-1.814
102.92;2513.45;-1.814
102.93;2513.74;-1.814
102.95;2513.52;-1.814
102.97;2514.39;-1.814
102.98;2513.65;-1.814
103;2513.28;-1.814
103.02;2513.23;-1.814
103.03;2514.04;-1.814
103.05;2514.39;-1.814
103.07;2514.42;-1.814
103.08;2514.11;-1.814
103.1;2514.58;-1.814
103.12;2513.83;-1.814
103.13;2514.7;-1.814
103.15;2513.94;-1.814
103.17;2513.84;-1.814
103.18;2514.02;-1.814
103.2;2514.52;-1.814
103.22;2514.17;-1.814
103.23;2514.2;-1.814
103.25;2514.73;-1.814
103.27;2513.83;-1.814
103.28;2514.49;-1.814
103.3;2514.87;-1.814
103.32;2514.27;-1.814
103.33;2514.61;-1.814
103.35;2514.59;-1.814
103.37;2514.61;-1.814
103.38;2515.19;-1.814
103.4;2515.22;-1.814
103.42;2514.84;-1.814
103.43;2515.23;-1.814
103.45;2514.76;-1.814
103.47;2515.45;-1.814
103.48;2516.03;-1.814
103.5;2515.79;-1.814
103.52;2515;-1.814
103.53;2515.31;-1.814
103.55;2515.65;-1.814
103.57;2514.99;-1.814
103.58;2515.42;-1.814
103.6;2515.65;-1.814
103.62;2515.48;-1.814
103.63;2515.6;-1.814
103.65;2515.81;-1.814
103.67;2516.05;-1.814
103.68;2515.22;-1.814
103.7;2515.21;-1.814
103.72;2515.89;-1.814
103.73;2515.98;-1.814
103.75;2516;-1.814
103.77;2515.67;-1.814
103.78;2516.15;-1.814
103.8;2516.73;-1.814
103.82;2516.41;-1.814
103.83;2516.52;-1.814
103.85;2516.56;-1.814
103.87;2517.26;-1.814
103.88;2516.7;-1.814
103.9;2516.94;-1.814
103.92;2517.06;-1.814
103.93;2517.31;-1.814
103.95;2517.88;-1.814
103.97;2517.11;-1.814
103.98;2517.4;-1.814
104;2517.79;-1.814
104.02;2517.61;-1.814
104.03;2517.87;-1.814
104.05;2518.65;-1.814
104.07;2518.15;-1.814
104.08;2518.17;-1.814
104.1;2517.95;-1.814
104.12;2518.61;-1.814
104.13;2518.71;-1.814
104.15;2518.46;-1.814
104.17;2519.04;-1.814
104.18;2520.05;-1.814
104.2;2519.27;-1.814
104.22;2518.73;-1.814
104.23;2519.49;-1.814
104.25;2519.57;-1.814
104.27;2520.45;-1.814
104.28;2519.77;-1.814
104.3;2519.74;-1.814
104.32;2519.5;-1.814
104.33;2519.89;-1.814
104.35;2519.99;-1.814
104.37;2519.98;-1.814
104.38;2520.56;-1.814
104.4;2519.9;-1.814
104.42;2520.38;-1.814
104.43;2520.05;-1.814
104.45;2520.5;-1.814
104.47;2520.5;-1.814
104.48;2520.14;-1.814
104.5;2520.31;-1.814
104.52;2520.02;-1.814
104.53;2520.47;-1.814
104.55;2520.53;-1.814
104.57;2520.43;-1.814
104.58;2520.88;-1.814
104.6;2520.7;-1.814
104.62;2520.81;-1.814
104.63;2520.08;-1.814
104.65;2521.21;-1.814
104.67;2520.58;-1.814
104.68;2520.4;-1.814
104.7;2520.17;-1.814
104.72;2520.34;-1.814
104.73;2520.33;-1.814
104.75;2520.59;-1.814
104.77;2520.59;-1.814
104.78;2520.48;-1.814
104.8;2520.19;-1.814
104.82;2520.16;-1.814
104.83;2520.15;-1.814
104.85;2520.02;-1.814
104.87;2519.64;-1.814
104.88;2519.74;-1.814
104.9;2519.78;-1.814
104.92;2519.94;-1.814
104.93;2519.92;-1.814
104.95;2520.3;-1.814
104.97;2520.02;-1.814
104.98;2519.93;-1.814
105;2519.84;-1.814
105.02;2519.81;-1.814
105.03;2520.43;-1.814
105.05;2520.25;-1.814
105.07;2520.36;-1.814
105.08;2520.07;-1.814
105.1;2519.98;-1.814
105.12;2519.87;-1.814
105.13;2519.92;-1.814
105.15;2519.77;-1.814
105.17;2519.8;-1.814
105.18;2520.05;-1.814
105.2;2518.99;-1.814
105.22;2519.23;-1.814
105.23;2519.79;-1.814
105.25;2518.98;-1.814
105.27;2518.86;-1.814
105.28;2518.99;-1.814
105.3;2519.31;-1.814
105.32;2519.23;-1.814
105.33;2519.34;-1.814
105.35;2519.21;-1.814
105.37;2519.35;-1.814
105.38;2518.06;-1.814
105.4;2518.45;-1.814
105.42;2518.72;-1.814
105.43;2518.71;-1.814
105.45;2519.13;-1.814
105.47;2519;-1.814
105.48;2519.4;-1.814
105.5;2518.41;-1.814
105.52;2517.89;-1.814
105.53;2518.12;-1.814
105.55;2518.21;-1.814
105.57;2518.46;-1.814
105.58;2517.98;-1.814
105.6;2517.88;-1.814
105.62;2517.15;-1.814
105.63;2517.41;-1.814
105.65;2516.98;-1.814
105.67;2517.09;-1.814
105.68;2517.09;-1.814
105.7;2517.31;-1.814
105.72;2516.85;-1.814
105.73;2517.28;-1.814
105.75;2517.06;-1.814
105.77;2517.67;-1.814
105.78;2517.21;-1.814
105.8;2516.35;-1.814
105.82;2516.43;-1.814
105.83;2516.89;-1.814
105.85;2516.97;-1.814
105.87;2517.35;-1.814
105.88;2517.02;-1.814
105.9;2516.74;-1.814
105.92;2516.39;-1.814
105.93;2515.78;-1.814
105.95;2516.3;-1.814
105.97;2516.12;-1.814
105.98;2515.51;-1.814
106;2515.92;-1.814
106.02;2515.32;-1.814
106.03;2515.91;-1.814
106.05;2515.73;-1.814
106.07;2515.43;-1.814
106.08;2515.53;-1.814
106.1;2515.7;-1.814
106.12;2515.83;-1.814
106.13;2516.38;-1.814
106.15;2516.78;-1.814
106.17;2515.73;-1.814
106.18;2516.04;-1.814
106.2;2515.43;-1.814
106.22;2515.29;-1.814
106.23;2515.95;-1.814
106.25;2515.96;-1.814
106.27;2516.36;-1.814
106.28;2515.57;-1.814
106.3;2515.13;-1.814
106.32;2515.26;-1.814
106.33;2515.1;-1.814
106.35;2515.9;-1.814
106.37;2515.34;-1.814
106.38;2515.9;-1.814
106.4;2515.16;-1.814
106.42;2515.16;-1.814
106.43;2515.23;-1.814
106.45;2514.98;-1.814
106.47;2514.63;-1.814
106.48;2515.08;-1.814
106.5;2514.62;-1.814
106.52;2514.44;-1.814
106.53;2515.17;-1.814
106.55;2515.06;-1.814
106.57;2514.77;-1.814
106.58;2514.87;-1.814
106.6;2515.12;-1.814
106.62;2514.85;-1.814
106.63;2514.84;-1.814
106.65;2514.75;-1.814
106.67;2514.78;-1.814
106.68;2515.31;-1.814
106.7;2514.72;-1.814
106.72;2514.87;-1.814
106.73;2515.04;-1.814
106.75;2514.59;-1.814
106.77;2514.49;-1.814
106.78;2514.71;-1.814
106.8;2514.51;-1.814
106.82;2514.45;-1.814
106.83;2514.31;-1.814
106.85;2514.14;-1.814
106.87;2513.71;-1.814
106.88;2513.57;-1.814
106.9;2513.81;-1.814
106.92;2513.61;-1.814
106.93;2513.77;-1.814
106.95;2514.34;-1.814
106.97;2514.34;-1.814
106.98;2513.66;-1.814
107;2513.69;-1.814
107.02;2513.87;-1.814
107.03;2513.71;-1.814
107.05;2513.76;-1.814
107.07;2513.88;-1.814
107.08;2513.64;-1.814
107.1;2513.79;-1.814
107.12;2513.61;-1.814
107.13;2513.19;-1.814
107.15;2513.91;-1.814
107.17;2513.15;-1.814
107.18;2512.66;-1.814
107.2;2512.91;-1.814
107.22;2513;-1.814
107.23;2513.16;-1.814
107.25;2513.12;-1.814
107.27;2513.15;-1.814
107.28;2512.93;-1.814
107.3;2512.75;-1.814
107.32;2511.89;-1.814
107.33;2511.55;-1.814
107.35;2511.9;-1.814
107.37;2511.92;-1.814
107.38;2512.18;-1.814
107.4;2512.73;-1.814
107.42;2512.31;-1.814
107.43;2512.46;-1.814
107.45;2512.32;-1.814
107.47;2512.25;-1.814
107.48;2511.72;-1.814
107.5;2511.71;-1.814
107.52;2512.18;-1.814
107.53;2511.83;-1.814
107.55;2511.79;-1.814
107.57;2512.15;-1.814
107.58;2512.17;-1.814
107.6;2511.68;-1.814
107.62;2511.24;-1.814
107.63;2511.68;-1.814
107.65;2511.44;-1.814
107.67;2511.05;-1.814
107.68;2510.59;-1.814
107.7;2510.6;-1.814
107.72;2510.23;-1.814
107.73;2510.34;-1.814
107.75;2510.56;-1.814
107.77;2510.78;-1.814
107.78;2510.59;-1.814
107.8;2510.52;-1.814
107.82;2510.56;-1.814
107.83;2509.86;-1.814
107.85;2509.92;-1.814
107.87;2509.96;-1.814
107.88;2510.5;-1.814
107.9;2510.57;-1.814
107.92;2510.88;-1.814
107.93;2510.05;-1.814
107.95;2510.03;-1.814
107.97;2509.78;-1.814
107.98;2509.4;-1.814
108;2509.19;-1.814
108.02;2509.14;-1.814
108.03;2509.62;-1.814
108.05;2509.68;-1.814
108.07;2509.7;-1.814
108.08;2509.6;-1.814
108.1;2509.58;-1.814
108.12;2508.73;-1.814
108.13;2508;-1.814
108.15;2508.22;-1.814
108.17;2508.66;-1.814
108.18;2508.6;-1.814
108.2;2508.98;-1.814
108.22;2508.69;-1.814
108.23;2508.43;-1.814
108.25;2508.52;-1.814
108.27;2509.07;-1.814
108.28;2508.91;-1.814
108.3;2509.26;-1.814
108.32;2508.89;-1.814
108.33;2509.49;-1.814
108.35;2509.47;-1.814
108.37;2509.63;-1.814
108.38;2508.95;-1.814
108.4;2509.53;-1.814
108.42;2509.17;-1.814
108.43;2509.5;-1.814
108.45;2510;-1.814
108.47;2509.61;-1.814
108.48;2509.25;-1.814
108.5;2508.85;-1.814
108.52;2509.29;-1.814
108.53;2510.17;-1.814
108.55;2510.08;-1.814
108.57;2510;-1.814
108.58;2509.65;-1.814
108.6;2509.68;-1.814
108.62;2510.21;-1.814
108.63;2510.11;-1.814
108.65;2510.14;-1.814
108.67;2510.11;-1.814
108.68;2510.88;-1.814
108.7;2511.51;-1.814
108.72;2511.77;-1.814
108.73;2512.29;-1.814
108.75;2512.08;-1.814
108.77;2511.9;-1.814
108.78;2511.61;-1.814
108.8;2511.62;-1.814
108.82;2512.14;-1.814
108.83;2511.89;-1.814
108.85;2512.86;-1.814
108.87;2513.13;-1.814
108.88;2513.01;-1.814
108.9;2512.65;-1.814
108.92;2511.97;-1.814
108.93;2511.83;-1.814
108.95;2512.42;-1.814
108.97;2512.79;-1.814
108.98;2513.31;-1.814
109;2513.82;-1.814
109.02;2513.91;-1.814
109.03;2514.01;-1.814
109.05;2513.98;-1.814
109.07;2513.97;-1.814
109.08;2514.03;-1.814
109.1;2514.4;-1.814
109.12;2515.05;-1.814
109.13;2515.12;-1.814
109.15;2514.9;-1.814
109.17;2515.06;-1.814
109.18;2515.04;-1.814
109.2;2515.37;-1.814
109.22;2515.43;-1.814
109.23;2515.78;-1.814
109.25;2515.78;-1.814
109.27;2516.32;-1.814
109.28;2515.65;-1.814
109.3;2515.71;-1.814
109.32;2515.37;-1.814
109.33;2516.1;-1.814
109.35;2516.28;-1.814
109.37;2516.68;-1.814
109.38;2517.16;-1.814
109.4;2517.56;-1.814
109.42;2517.99;-1.814
109.43;2517.79;-1.814
109.45;2517.72;-1.814
109.47;2517.47;-1.814
109.48;2518.37;-1.814
109.5;2518.44;-1.814
109.52;2519.16;-1.814
109.53;2519.27;-1.814
109.55;2520.21;-1.814
109.57;2520.02;-1.814
109.58;2520.14;-1.814
109.6;2519.95;-1.814
109.62;2519.81;-1.814
109.63;2519.72;-1.814
109.65;2520.57;-1.814
109.67;2520.67;-1.814
109.68;2521.16;-1.814
109.7;2521.21;-1.814
109.72;2520.89;-1.814
109.73;2520.66;-1.814
109.75;2521.13;-1.814
109.77;2521.74;-1.814
109.78;2521.54;-1.814
109.8;2521.81;-1.814
109.82;2521.85;-1.814
109.83;2522.22;-1.814
109.85;2522.24;-1.814
109.87;2522.06;-1.814
109.88;2521.9;-1.814
109.9;2522.71;-1.814
109.92;2522.67;-1.814
109.93;2522.87;-1.814
109.95;2523;-1.814
109.97;2523.67;-1.814
109.98;2523.39;-1.814
110;2523.54;-1.814
110.02;2522.47;-1.814
110.03;2522.92;-1.814
110.05;2523.2;-1.814
110.07;2523.19;-1.814
110.08;2523.42;-1.814
110.1;2523.2;-1.814
110.12;2523.14;-1.814
110.13;2522.98;-1.814
110.15;2522.88;-1.814
110.17;2523.27;-1.814
110.18;2523.09;-1.814
110.2;2523.22;-1.814
110.22;2523.15;-1.814
110.23;2522.99;-1.814
110.25;2523.07;-1.814
110.27;2522.7;-1.814
110.28;2522.91;-1.814
110.3;2522.71;-1.814
110.32;2523.29;-1.814
110.33;2523.37;-1.814
110.35;2523.73;-1.814
110.37;2523.3;-1.814
110.38;2522.73;-1.814
110.4;2522.65;-1.814
110.42;2522.66;-1.814
110.43;2522.07;-1.814
110.45;2522;-1.814
110.47;2522.38;-1.814
110.48;2522.42;-1.814
110.5;2522.19;-1.814
110.52;2521.66;-1.814
110.53;2521.54;-1.814
110.55;2520.96;-1.814
110.57;2520.52;-1.814
110.58;2520.84;-1.814
110.6;2520.74;-1.814
110.62;2520.34;-1.814
110.63;2520.83;-1.814
110.65;2520.28;-1.814
110.67;2520.1;-1.814
110.68;2520.22;-1.814
110.7;2519.65;-1.814
110.72;2519.38;-1.814
110.73;2519.84;-1.814
110.75;2520.34;-1.814
110.77;2520.35;-1.814
110.78;2520.07;-1.814
110.8;2520.08;-1.814
110.82;2519.43;-1.814
110.83;2518.61;-1.814
110.85;2518.81;-1.814
110.87;2518.33;-1.814
110.88;2519.24;-1.814
110.9;2519.16;-1.814
110.92;2518.93;-1.814
110.93;2518.08;-1.814
110.95;2518.53;-1.814
110.97;2518.16;-1.814
110.98;2517.93;-1.814
111;2517.6;-1.814
111.02;2517.89;-1.814
111.03;2517.7;-1.814
111.05;2518.3;-1.814
111.07;2517.56;-1.814
111.08;2518;-1.814
111.1;2517.44;-1.814
111.12;2517.4;-1.814
111.13;2517.56;-1.814
111.15;2517.88;-1.814
111.17;2518.33;-1.814
111.18;2517.88;-1.814
111.2;2517.19;-1.814
111.22;2517.26;-1.814
111.23;2516.67;-1.814
111.25;2516.33;-1.814
111.27;2516.67;-1.814
111.28;2516.42;-1.814
111.3;2517.44;-1.814
111.32;2517.78;-1.814
111.33;2516.9;-1.814
111.35;2516.42;-1.814
111.37;2516.14;-1.814
111.38;2515.84;-1.814
111.4;2515.72;-1.814
111.42;2516.26;-1.814
111.43;2516.19;-1.814
111.45;2516.5;-1.814
111.47;2516.21;-1.814
111.48;2516.38;-1.814
111.5;2515.77;-1.814
111.52;2514.92;-1.814
111.53;2515.16;-1.814
111.55;2515.99;-1.814
111.57;2516.49;-1.814
111.58;2516.68;-1.814
111.6;2516.52;-1.814
111.62;2516.2;-1.814
111.63;2515.99;-1.814
111.65;2516.11;-1.814
111.67;2516.05;-1.814
111.68;2516.4;-1.814
111.7;2516.37;-1.814
111.72;2516.46;-1.814
111.73;2516.56;-1.814
111.75;2515.91;-1.814
111.77;2515.69;-1.814
111.78;2515.85;-1.814
111.8;2515.35;-1.814
111.82;2515.29;-1.814
111.83;2516.1;-1.814
111.85;2516.13;-1.814
111.87;2516.16;-1.814
111.88;2515.44;-1.814
111.9;2515.38;-1.814
111.92;2515.45;-1.814
111.93;2515.16;-1.814
111.95;2515.14;-1.814
111.97;2516.01;-1.814
111.98;2516.46;-1.814
112;2515.79;-1.814
112.02;2515.95;-1.814
112.03;2515.23;-1.814
112.05;2514.59;-1.814
112.07;2514.9;-1.814
112.08;2515.52;-1.814
112.1;2515.3;-1.814
112.12;2515.03;-1.814
112.13;2514.78;-1.814
112.15;2514.93;-1.814
112.17;2514.94;-1.814
112.18;2514.68;-1.814
112.2;2514.2;-1.814
112.22;2514.05;-1.814
112.23;2514.44;-1.814
112.25;2515.13;-1.814
112.27;2515.15;-1.814
112.28;2515.16;-1.814
112.3;2514.44;-1.814
112.32;2514.37;-1.814
112.33;2513.65;-1.814
112.35;2514.06;-1.814
112.37;2514.7;-1.814
112.38;2515.24;-1.814
112.4;2513.87;-1.814
112.42;2514.65;-1.814
112.43;2514.24;-1.814
112.45;2514.08;-1.814
112.47;2514.2;-1.814
112.48;2513.4;-1.814
112.5;2513.24;-1.814
112.52;2513.43;-1.814
112.53;2513.5;-1.814
112.55;2513.25;-1.814
112.57;2512.56;-1.814
112.58;2512.04;-1.814
112.6;2512.42;-1.814
112.62;2512.55;-1.814
112.63;2513.08;-1.814
112.65;2513.14;-1.814
112.67;2512.26;-1.814
112.68;2512.83;-1.814
112.7;2512.33;-1.814
112.72;2511.92;-1.814
112.73;2512.15;-1.814
112.75;2512;-1.814
112.77;2512.12;-1.814
112.78;2512.7;-1.814
112.8;2512.23;-1.814
112.82;2511.39;-1.814
112.83;2511.27;-1.814
112.85;2511.74;-1.814
112.87;2512.15;-1.814
112.88;2511.85;-1.814
112.9;2511.84;-1.814
112.92;2511.6;-1.814
112.93;2511.99;-1.814
112.95;2511.91;-1.814
112.97;2511.05;-1.814
112.98;2510.68;-1.814
113;2510.8;-1.814
113.02;2510.42;-1.814
113.03;2510.25;-1.814
113.05;2510.69;-1.814
113.07;2510.85;-1.814
113.08;2510.42;-1.814
113.1;2510.39;-1.814
113.12;2510.15;-1.814
113.13;2509.92;-1.814
113.15;2509.97;-1.814
113.17;2509.99;-1.814
113.18;2510.53;-1.814
113.2;2510.46;-1.814
113.22;2510.44;-1.814
113.23;2509.83;-1.814
113.25;2509.43;-1.814
113.27;2509.25;-1.814
113.28;2509.35;-1.814
113.3;2509.18;-1.814
113.32;2509.45;-1.814
113.33;2509.59;-1.814
113.35;2509.54;-1.814
113.37;2508.74;-1.814
113.38;2508.92;-1.814
113.4;2508.27;-1.814
113.42;2508.13;-1.814
113.43;2508.1;-1.814
113.45;2507.81;-1.814
113.47;2508.29;-1.814
113.48;2508.58;-1.814
113.5;2508.36;-1.814
113.52;2508.14;-1.814
113.53;2508.01;-1.814
113.55;2507.94;-1.814
113.57;2507.61;-1.814
113.58;2507.91;-1.814
113.6;2508.34;-1.814
113.62;2508.32;-1.814
113.63;2507.08;-1.814
113.65;2507.11;-1.814
113.67;2506.6;-1.814
113.68;2507.26;-1.814
113.7;2507.06;-1.814
113.72;2507.03;-1.814
113.73;2507.17;-1.814
113.75;2507.12;-1.814
113.77;2506.86;-1.814
113.78;2507.12;-1.814
113.8;2505.96;-1.814
113.82;2505.61;-1.815
113.83;2505.58;-1.814
113.85;2505.39;-1.814
113.87;2505.59;-1.814
113.88;2505.9;-1.814
113.9;2505.77;-1.814
113.92;2506.3;-1.814
113.93;2505.9;-1.814
113.95;2505.4;-1.814
113.97;2505.01;-1.814
113.98;2504.83;-1.814
114;2505.31;-1.814
114.02;2505.42;-1.814
114.03;2505.64;-1.814
114.05;2505.72;-1.815
114.07;2505.15;-1.814
114.08;2505.3;-1.815
114.1;2504.77;-1.815
114.12;2504.91;-1.814
114.13;2504.88;-1.814
114.15;2504.99;-1.814
114.17;2505.26;-1.814
114.18;2504.77;-1.814
114.2;2503.94;-1.814
114.22;2503.87;-1.814
114.23;2504.14;-1.814
114.25;2503.67;-1.814
114.27;2504.16;-1.814
114.28;2504.46;-1.814
114.3;2504.79;-1.814
114.32;2503.68;-1.814
114.33;2503.87;-1.814
114.35;2503.33;-1.814
114.37;2503.31;-1.814
114.38;2503.68;-1.814
114.4;2503.48;-1.815
114.42;2504.16;-1.814
114.43;2504.24;-1.815
114.45;2503.43;-1.815
114.47;2503;-1.814
114.48;2502.1;-1.814
114.5;2502.19;-1.815
114.52;2502.01;-1.814
114.53;2502.47;-1.814
114.55;2502.37;-1.814
114.57;2502.73;-1.814
114.58;2502.35;-1.814
114.6;2502.07;-1.814
114.62;2501.8;-1.814
114.63;2500.83;-1.814
114.65;2501.04;-1.814
114.67;2501.54;-1.815
114.68;2501.85;-1.815
114.7;2501.72;-1.814
114.72;2501.24;-1.815
114.73;2501.33;-1.814
114.75;2500.61;-1.814
114.77;2500.88;-1.814
114.78;2500.79;-1.814
114.8;2501.31;-1.814
114.82;2502.42;-1.814
114.83;2501.6;-1.814
114.85;2501.68;-1.815
114.87;2501.29;-1.814
114.88;2501.19;-1.814
114.9;2501.28;-1.814
114.92;2501.23;-1.814
114.93;2501.33;-1.815
114.95;2501.42;-1.815
114.97;2500.78;-1.815
114.98;2501;-1.815
115;2500.61;-1.815
115.02;2500.5;-1.815
115.03;2499.74;-1.815
115.05;2500.22;-1.815
115.07;2500.09;-1.815
115.08;2500.08;-1.814
115.1;2500.19;-1.814
115.12;2500.04;-1.814
115.13;2499.96;-1.814
115.15;2499.44;-1.814
115.17;2499.68;-1.814
115.18;2499.23;-1.814
115.2;2499.03;-1.814
115.22;2499.49;-1.815
115.23;2500.07;-1.815
115.25;2500.15;-1.815
115.27;2499.22;-1.815
115.28;2498.9;-1.815
115.3;2498.83;-1.815
115.32;2498.55;-1.815
115.33;2498.85;-1.814
115.35;2498.86;-1.815
115.37;2498.83;-1.814
115.38;2499.31;-1.814
115.4;2499.14;-1.814
115.42;2498.69;-1.814
115.43;2497.39;-1.814
115.45;2497.19;-1.814
115.47;2497.57;-1.814
115.48;2497.38;-1.814
115.5;2497.64;-1.814
115.52;2497.62;-1.814
115.53;2497.11;-1.815
115.55;2497.92;-1.815
115.57;2497.3;-1.815
115.58;2497.32;-1.815
115.6;2496.96;-1.815
115.62;2497.14;-1.815
115.63;2497.26;-1.815
115.65;2496.72;-1.815
115.67;2496.55;-1.815
115.68;2497.18;-1.814
115.7;2496.95;-1.814
115.72;2496.6;-1.814
115.73;2496.31;-1.814
115.75;2496.7;-1.814
115.77;2495.97;-1.814
115.78;2496.11;-1.815
115.8;2495.98;-1.815
115.82;2495.67;-1.815
115.83;2494.84;-1.815
115.85;2494.91;-1.815
115.87;2495.04;-1.815
115.88;2495.36;-1.815
115.9;2495.36;-1.815
115.92;2495.27;-1.815
115.93;2495.66;-1.815
115.95;2495.25;-1.814
115.97;2495.13;-1.815
115.98;2494.76;-1.815
116;2494.65;-1.814
116.02;2494.37;-1.815
116.03;2494.48;-1.815
116.05;2494.53;-1.815
116.07;2495.35;-1.815
116.08;2495.12;-1.815
116.1;2494.81;-1.815
116.12;2494.94;-1.815
116.13;2493.83;-1.815
116.15;2494.2;-1.815
116.17;2494.24;-1.815
116.18;2494.18;-1.815
116.2;2493.88;-1.815
116.22;2494.38;-1.815
116.23;2493.71;-1.815
116.25;2493.48;-1.815
116.27;2492.78;-1.814
116.28;2493.25;-1.814
116.3;2493.95;-1.814
116.32;2493.38;-1.814
116.33;2493.5;-1.814
116.35;2493.47;-1.815
116.37;2492.97;-1.815
116.38;2493.07;-1.815
116.4;2493.05;-1.815
116.42;2493.04;-1.815
116.43;2492.88;-1.815
116.45;2493.16;-1.815
116.47;2493.6;-1.815
116.48;2493.37;-1.815
116.5;2493.46;-1.815
116.52;2493.74;-1.815
116.53;2493.14;-1.815
116.55;2493.3;-1.815
116.57;2493.72;-1.815
116.58;2493.55;-1.815
116.6;2492.47;-1.815
116.62;2492.88;-1.815
116.63;2493.11;-1.814
116.65;2492.37;-1.815
116.67;2491.85;-1.815
116.68;2492.1;-1.815
116.7;2492.37;-1.815
116.72;2492.68;-1.815
116.73;2491.65;-1.815
116.75;2491.6;-1.815
116.77;2491.85;-1.815
116.78;2492.07;-1.815
116.8;2491.87;-1.815
116.82;2491.02;-1.815
116.83;2491.23;-1.815
116.85;2491.71;-1.815
116.87;2492.29;-1.815
116.88;2491.56;-1.814
116.9;2491.87;-1.815
116.92;2491.86;-1.815
116.93;2491.43;-1.815
116.95;2490.78;-1.815
116.97;2490.84;-1.815
116.98;2491.52;-1.815
117;2491.14;-1.815
117.02;2491.22;-1.815
117.03;2491.61;-1.815
117.05;2491.01;-1.815
117.07;2490.69;-1.815
117.08;2490.22;-1.815
117.1;2490.06;-1.815
117.12;2490.48;-1.814
117.13;2490.43;-1.815
117.15;2490.11;-1.815
117.17;2489.68;-1.815
117.18;2489.91;-1.815
117.2;2489.83;-1.814
117.22;2489.73;-1.815
117.23;2489.96;-1.814
117.25;2489.65;-1.815
117.27;2490.36;-1.815
117.28;2489.79;-1.815
117.3;2490.37;-1.815
117.32;2489.79;-1.815
117.33;2489.58;-1.815
117.35;2489.4;-1.815
117.37;2489.06;-1.815
117.38;2488.86;-1.815
117.4;2489.8;-1.815
117.42;2489.84;-1.815
117.43;2489.62;-1.814
117.45;2489.16;-1.815
117.47;2489;-1.815
117.48;2488.37;-1.814
117.5;2488.11;-1.815
117.52;2488.61;-1.815
117.53;2488.59;-1.815
117.55;2488.16;-1.815
117.57;2488.11;-1.815
117.58;2488.32;-1.815
117.6;2488.49;-1.815
117.62;2487.8;-1.815
117.63;2488.09;-1.815
117.65;2487.94;-1.815
117.67;2488.45;-1.815
117.68;2489;-1.815
117.7;2488.83;-1.815
117.72;2488.7;-1.815
117.73;2488.73;-1.815
117.75;2488.11;-1.815
117.77;2487.84;-1.815
117.78;2488.06;-1.815
117.8;2488.24;-1.815
117.82;2488.32;-1.815
117.83;2487.98;-1.815
117.85;2488.54;-1.815
117.87;2488.08;-1.815
117.88;2487.66;-1.815
117.9;2487.53;-1.815
117.92;2487.12;-1.815
117.93;2486.89;-1.815
117.95;2487.24;-1.815
117.97;2487.04;-1.815
117.98;2487.49;-1.815
118;2487.62;-1.815
118.02;2486.89;-1.815
118.03;2486.77;-1.815
118.05;2486.48;-1.815
118.07;2486.75;-1.815
118.08;2487.66;-1.815
118.1;2487.97;-1.815
118.12;2486.96;-1.815
118.13;2486.72;-1.815
118.15;2486.61;-1.815
118.17;2486.38;-1.815
118.18;2486.61;-1.815
118.2;2486.86;-1.815
118.22;2486.89;-1.815
118.23;2486.75;-1.815
118.25;2486.78;-1.815
118.27;2486.73;-1.815
118.28;2486.37;-1.815
118.3;2485.99;-1.815
118.32;2486.09;-1.815
118.33;2485.34;-1.815
118.35;2485.78;-1.815
118.37;2486.27;-1.815
118.38;2485.98;-1.815
118.4;2485.85;-1.815
118.42;2486.1;-1.815
118.43;2486.21;-1.815
118.45;2485.52;-1.815
118.47;2485.9;-1.815
118.48;2485.69;-1.815
118.5;2486.01;-1.815
118.52;2485.88;-1.815
118.53;2486.14;-1.815
118.55;2485.71;-1.815
118.57;2485.19;-1.815
118.58;2485.54;-1.815
118.6;2485.57;-1.815
118.62;2486;-1.815
118.63;2485.34;-1.815
118.65;2484.97;-1.815
118.67;2485.05;-1.815
118.68;2485.39;-1.815
118.7;2484.72;-1.815
118.72;2484.53;-1.815
118.73;2484.74;-1.815
118.75;2484.83;-1.815
118.77;2484.92;-1.815
118.78;2484.78;-1.815
118.8;2484.39;-1.815
118.82;2484.42;-1.815
118.83;2484.45;-1.815
118.85;2484.7;-1.815
118.87;2485.14;-1.815
118.88;2484.63;-1.815
118.9;2484.88;-1.815
118.92;2484.74;-1.815
118.93;2484.97;-1.815
118.95;2484.65;-1.815
118.97;2485.16;-1.815
118.98;2484.87;-1.815
119;2484.85;-1.815
119.02;2484.51;-1.815
119.03;2484.48;-1.815
119.05;2484.43;-1.815
119.07;2484.66;-1.815
119.08;2484.15;-1.815
119.1;2484.37;-1.815
119.12;2483.84;-1.815
119.13;2484.02;-1.815
119.15;2484.6;-1.815
119.17;2484.23;-1.815
119.18;2483.72;-1.815
119.2;2484.47;-1.815
119.22;2483.86;-1.815
119.23;2483.96;-1.815
119.25;2483.98;-1.815
119.27;2484.28;-1.815
119.28;2484.43;-1.815
119.3;2484.09;-1.815
119.32;2485.1;-1.815
119.33;2483.92;-1.815
119.35;2484.07;-1.815
119.37;2483.95;-1.815
119.38;2484.57;-1.815
119.4;2484.26;-1.815
119.42;2484.12;-1.815
119.43;2484.18;-1.815
119.45;2484;-1.815
119.47;2484.12;-1.815
119.48;2483.9;-1.815
119.5;2483.82;-1.815
119.52;2483.99;-1.815
119.53;2483.92;-1.815
119.55;2483.65;-1.815
119.57;2483.48;-1.815
119.58;2484.21;-1.815
119.6;2484.07;-1.815
119.62;2483.63;-1.815
119.63;2483.62;-1.815
119.65;2483.73;-1.815
119.67;2483.77;-1.815
119.68;2483.95;-1.815
119.7;2484.19;-1.815
119.72;2484.24;-1.815
119.73;2484.88;-1.815
119.75;2484.54;-1.815
119.77;2484.13;-1.815
119.78;2484.2;-1.815
119.8;2484.39;-1.815
119.82;2484.24;-1.815
119.83;2484.67;-1.815
119.85;2483.77;-1.815
119.87;2483.6;-1.815
119.88;2483.91;-1.815
119.9;2483.89;-1.815
119.92;2483.39;-1.815
119.93;2483.01;-1.815
119.95;2482.76;-1.815
119.97;2483.27;-1.815
119.98;2482.72;-1.815
120;2483;-1.815
120.02;2482.82;-1.815
120.03;2482.96;-1.815
120.05;2483.09;-1.815
120.07;2482.92;-1.815
120.08;2482.53;-1.815
120.1;2482.44;-1.815
120.12;2482.75;-1.815
120.13;2482.87;-1.815
120.15;2482.55;-1.815
120.17;2482.08;-1.815
120.18;2482.37;-1.815
120.2;2482.51;-1.815
120.22;2482.35;-1.815
120.23;2482.12;-1.815
120.25;2482.08;-1.815
120.27;2482.64;-1.815
120.28;2481.96;-1.815
120.3;2482.19;-1.815
120.32;2481.81;-1.815
120.33;2481.16;-1.815
120.35;2481.3;-1.815
120.37;2481.29;-1.815
120.38;2481.61;-1.815
120.4;2481.74;-1.815
120.42;2481.62;-1.815
120.43;2481.4;-1.815
120.45;2481.35;-1.815
120.47;2481.52;-1.815
120.48;2481.53;-1.815
120.5;2481.63;-1.815
120.52;2481.43;-1.815
120.53;2481.7;-1.815
120.55;2481.68;-1.815
120.57;2481.76;-1.815
120.58;2481.22;-1.815
120.6;2481.28;-1.815
120.62;2481.21;-1.815
120.63;2480.6;-1.815
120.65;2480.64;-1.815
120.67;2480.67;-1.815
120.68;2480.78;-1.815
120.7;2480.76;-1.815
120.72;2480.34;-1.815
120.73;2480.13;-1.815
120.75;2479.95;-1.815
120.77;2479.8;-1.815
120.78;2480.07;-1.815
120.8;2481.19;-1.815
120.82;2480.57;-1.815
120.83;2480.68;-1.815
120.85;2480.03;-1.815
120.87;2479.83;-1.815
120.88;2479.85;-1.815
120.9;2480.19;-1.815
120.92;2480.03;-1.815
120.93;2479.51;-1.815
120.95;2479.81;-1.815
120.97;2479.72;-1.815
120.98;2479.76;-1.815
121;2479.53;-1.815
121.02;2479.33;-1.815
121.03;2479.26;-1.815
121.05;2479.03;-1.815
121.07;2479.01;-1.815
121.08;2478.75;-1.815
121.1;2478.36;-1.815
121.12;2478.92;-1.815
121.13;2478.52;-1.815
121.15;2477.82;-1.815
121.17;2477.72;-1.815
121.18;2478.29;-1.815
121.2;2478.32;-1.815
121.22;2478;-1.815
121.23;2477.41;-1.815
121.25;2477.44;-1.815
121.27;2477.25;-1.815
121.28;2477.42;-1.815
121.3;2477.69;-1.815
121.32;2477.8;-1.815
121.33;2477.62;-1.815
121.35;2478.2;-1.815
121.37;2478.26;-1.815
121.38;2477.87;-1.815
121.4;2478.04;-1.815
121.42;2477.92;-1.815
121.43;2477.5;-1.815
121.45;2478.07;-1.815
121.47;2478.06;-1.815
121.48;2477.63;-1.815
121.5;2477.97;-1.815
121.52;2477.41;-1.815
121.53;2477.26;-1.815
121.55;2477.05;-1.815
121.57;2476.48;-1.815
121.58;2476.73;-1.815
121.6;2477.75;-1.815
121.62;2477.25;-1.815
121.63;2476.81;-1.815
121.65;2476.56;-1.815
121.67;2476.54;-1.815
121.68;2476.34;-1.815
121.7;2476.68;-1.815
121.72;2476.55;-1.815
121.73;2476.46;-1.815
121.75;2476.69;-1.815
121.77;2476.83;-1.815
121.78;2476.77;-1.815
121.8;2476.31;-1.815
121.82;2475.79;-1.815
121.83;2475.85;-1.815
121.85;2475.75;-1.815
121.87;2475.84;-1.815
121.88;2475.56;-1.815
121.9;2475.76;-1.815
121.92;2475.62;-1.815
121.93;2474.95;-1.815
121.95;2474.67;-1.815
121.97;2474.24;-1.815
121.98;2474.58;-1.815
122;2474.66;-1.815
122.02;2474.81;-1.815
122.03;2474.07;-1.815
122.05;2474.18;-1.815
122.07;2474.25;-1.815
122.08;2473.91;-1.815
122.1;2474.58;-1.815
122.12;2474.28;-1.815
122.13;2474.36;-1.815
122.15;2473.96;-1.815
122.17;2473.7;-1.815
122.18;2474.34;-1.815
122.2;2474.41;-1.815
122.22;2474.3;-1.815
122.23;2474.06;-1.815
122.25;2473.38;-1.815
122.27;2474.43;-1.815
122.28;2473.64;-1.815
122.3;2472.86;-1.815
122.32;2473.04;-1.815
122.33;2473.16;-1.815
122.35;2472.93;-1.815
122.37;2472.84;-1.815
122.38;2472.79;-1.815
122.4;2472.77;-1.815
122.42;2472.66;-1.815
122.43;2472.6;-1.815
122.45;2472.3;-1.815
122.47;2472.87;-1.815
122.48;2471.94;-1.815
122.5;2472.29;-1.815
122.52;2472.39;-1.815
122.53;2473.02;-1.815
122.55;2472.13;-1.815
122.57;2471.99;-1.815
122.58;2471.95;-1.815
122.6;2472.2;-1.815
122.62;2472.53;-1.815
122.63;2471.55;-1.815
122.65;2472.15;-1.815
122.67;2471.95;-1.815
122.68;2471.33;-1.815
122.7;2471.63;-1.815
122.72;2471.36;-1.815
122.73;2471.41;-1.815
122.75;2471.32;-1.815
122.77;2470.66;-1.815
122.78;2470.69;-1.815
122.8;2470.66;-1.815
122.82;2470.83;-1.815
122.83;2470.4;-1.815
122.85;2470.13;-1.815
122.87;2470.07;-1.815
122.88;2470.09;-1.815
122.9;2470.14;-1.815
122.92;2470.28;-1.815
122.93;2469.79;-1.815
122.95;2469.55;-1.815
122.97;2469.48;-1.815
122.98;2469.48;-1.815
123;2469.51;-1.815
123.02;2469.1;-1.815
123.03;2469.17;-1.815
123.05;2469.29;-1.815
123.07;2469.45;-1.815
123.08;2469;-1.815
123.1;2468.89;-1.815
123.12;2468.5;-1.815
123.13;2467.42;-1.815
123.15;2467.85;-1.815
123.17;2467.74;-1.815
123.18;2467.23;-1.815
123.2;2466.94;-1.815
123.22;2466.72;-1.815
123.23;2466.36;-1.815
123.25;2466.78;-1.815
123.27;2465.99;-1.815
123.28;2466.18;-1.815
123.3;2465.93;-1.815
123.32;2465.59;-1.815
123.33;2466;-1.815
123.35;2465.95;-1.815
123.37;2465.19;-1.815
123.38;2465.19;-1.815
123.4;2465.58;-1.815
123.42;2464.92;-1.815
123.43;2464.62;-1.815
123.45;2464.74;-1.815
123.47;2464.15;-1.815
123.48;2464.04;-1.815
123.5;2464.34;-1.815
123.52;2463.8;-1.815
123.53;2463.73;-1.815
123.55;2464.26;-1.815
123.57;2463.58;-1.815
123.58;2464.25;-1.815
123.6;2463.09;-1.815
123.62;2462.32;-1.815
123.63;2462.24;-1.815
123.65;2461.69;-1.815
123.67;2461.04;-1.815
123.68;2461.24;-1.815
123.7;2461.3;-1.815
123.72;2460.79;-1.815
123.73;2460.63;-1.815
123.75;2459.94;-1.815
123.77;2459.39;-1.815
123.78;2458.43;-1.815
123.8;2458.64;-1.815
123.82;2458.37;-1.815
123.83;2457.51;-1.815
123.85;2457.11;-1.815
123.87;2456.21;-1.815
123.88;2455.45;-1.815
123.9;2455.05;-1.815
123.92;2454.66;-1.815
123.93;2453.65;-1.815
123.95;2452.58;-1.815
123.97;2451.34;-1.815
123.98;2450.04;-1.815
124;2448.66;-1.815
124.02;2446.78;-1.815
124.03;2445.75;-1.815
124.05;2443.84;-1.815
124.07;2442.22;-1.815
124.08;2440.22;-1.815
124.1;2438.78;-1.815
124.12;2436.26;-1.815
124.13;2433.45;-1.815
124.15;2430.9;-1.815
124.17;2427.99;-1.815
124.18;2424.41;-1.815
124.2;2420.51;-1.815
124.22;2417.19;-1.815
124.23;2412.46;-1.815
124.25;2406.79;-1.815
124.27;2400.96;-1.815
124.28;2394.06;-1.815
124.3;2385.18;-1.815
124.32;2375.51;-1.815
124.33;2364.2;-1.815
124.35;2350.92;-1.815
124.37;2334.77;-1.815
124.38;2315.96;-1.815
124.4;2292.42;-1.815
124.42;2261.48;-1.815
124.43;2221.87;-1.815
124.45;2166.61;-1.815
124.47;2081.04;-1.815
124.48;1650.7;-1.815
124.49;757.17;-1.815
